%OpenBCI Raw EEG Data
%
%Sample Rate = 250.0 Hz
%First Column = SampleIndex
%Last Column = Timestamp 
%Other Columns = EEG data in microvolts followed by Accel Data (in G) interleaved with Aux Data
0, 0.00, 0.00, 0.00, 0.00, 0.00, 0.00, 0.00, 0.00, 0.042, -0.008, 0.980, 19:25:45.342
1, -6538.42, -6626.00, -6662.47, -6597.94, -60547.61, -97577.70, -127329.21, -113736.22, 0.000, 0.000, 0.000, 19:25:45.826
2, -6543.79, -6630.69, -6666.65, -6601.86, -60551.45, -97581.59, -127333.16, -113739.69, 0.000, 0.000, 0.000, 19:25:45.826
3, -6548.66, -6634.91, -6670.52, -6605.59, -60555.16, -97585.21, -127336.72, -113743.11, 0.000, 0.000, 0.000, 19:25:45.826
4, -6545.37, -6631.81, -6667.61, -6602.84, -60552.46, -97582.46, -127333.97, -113740.63, 0.000, 0.000, 0.000, 19:25:45.827
5, -6540.39, -6627.60, -6663.97, -6599.40, -60549.18, -97579.22, -127330.80, -113737.83, 0.000, 0.000, 0.000, 19:25:45.827
6, -6537.06, -6624.39, -6660.93, -6596.42, -60546.29, -97576.36, -127328.09, -113735.13, 0.000, 0.000, 0.000, 19:25:45.827
7, -6541.71, -6628.23, -6664.33, -6599.69, -60549.62, -97579.58, -127331.38, -113738.01, 0.000, 0.000, 0.000, 19:25:45.827
8, -6547.18, -6633.37, -6669.00, -6604.14, -60554.07, -97584.05, -127335.78, -113742.13, 0.032, -0.004, 0.972, 19:25:45.827
9, -6543.90, -6630.44, -6666.14, -6601.39, -60551.34, -97581.37, -127333.05, -113739.62, 0.000, 0.000, 0.000, 19:25:45.827
10, -6538.51, -6625.93, -6662.05, -6597.56, -60547.72, -97577.81, -127329.48, -113736.49, 0.000, 0.000, 0.000, 19:25:45.827
11, -6535.58, -6623.16, -6659.57, -6594.95, -60545.42, -97575.51, -127327.20, -113734.26, 0.000, 0.000, 0.000, 19:25:45.828
12, -6540.84, -6627.56, -6663.61, -6598.77, -60549.11, -97579.20, -127330.98, -113737.59, 0.000, 0.000, 0.000, 19:25:45.828
13, -6545.08, -6631.27, -6666.92, -6602.08, -60552.17, -97582.21, -127334.06, -113740.42, 0.000, 0.000, 0.000, 19:25:45.828
14, -6544.46, -6630.89, -6666.65, -6601.92, -60552.15, -97582.15, -127333.93, -113740.58, 0.000, 0.000, 0.000, 19:25:45.828
15, -6539.05, -6626.40, -6662.63, -6597.99, -60548.62, -97578.70, -127330.40, -113737.52, 0.000, 0.000, 0.000, 19:25:45.828
16, -6537.75, -6625.35, -6661.74, -6597.07, -60547.92, -97577.86, -127329.77, -113736.87, 0.000, 0.000, 0.000, 19:25:45.828
17, -6542.24, -6629.01, -6664.89, -6600.11, -60550.85, -97580.80, -127332.81, -113739.40, 0.000, 0.000, 0.000, 19:25:45.828
18, -6546.13, -6632.30, -6667.88, -6602.97, -60553.60, -97583.65, -127335.45, -113741.99, 0.034, -0.002, 0.974, 19:25:45.828
19, -6542.58, -6628.97, -6664.71, -6599.96, -60550.58, -97580.72, -127332.54, -113739.24, 0.000, 0.000, 0.000, 19:25:45.829
20, -6535.90, -6623.22, -6659.41, -6594.93, -60545.71, -97575.84, -127327.69, -113734.86, 0.000, 0.000, 0.000, 19:25:45.829
21, -6533.08, -6620.56, -6657.00, -6592.38, -60543.48, -97573.56, -127325.52, -113732.66, 0.000, 0.000, 0.000, 19:25:45.829
22, -6537.53, -6624.25, -6660.24, -6595.46, -60546.47, -97576.54, -127328.59, -113735.26, 0.000, 0.000, 0.000, 19:25:45.829
23, -6544.12, -6630.33, -6665.83, -6600.98, -60551.93, -97581.97, -127334.04, -113740.40, 0.000, 0.000, 0.000, 19:25:45.829
24, -6540.61, -6627.25, -6662.76, -6598.21, -60549.13, -97579.13, -127331.16, -113737.79, 0.000, 0.000, 0.000, 19:25:45.829
25, -6532.68, -6620.23, -6656.17, -6591.84, -60543.09, -97573.01, -127325.03, -113732.20, 0.000, 0.000, 0.000, 19:25:45.829
26, -6531.74, -6619.56, -6655.66, -6591.35, -60542.80, -97572.71, -127324.70, -113732.06, 0.000, 0.000, 0.000, 19:25:45.829
27, -6536.81, -6623.78, -6659.41, -6594.93, -60546.31, -97576.27, -127328.32, -113735.20, 0.000, 0.000, 0.000, 19:25:45.830
28, -6541.10, -6627.34, -6662.67, -6598.01, -60549.31, -97579.27, -127331.34, -113737.97, 0.036, -0.002, 0.976, 19:25:45.830
29, -6539.61, -6626.11, -6661.56, -6596.96, -60548.35, -97578.34, -127330.44, -113737.23, 0.000, 0.000, 0.000, 19:25:45.830
30, -6534.38, -6621.82, -6657.78, -6593.41, -60545.04, -97575.06, -127327.20, -113734.41, 0.000, 0.000, 0.000, 19:25:45.830
31, -6532.23, -6619.85, -6656.04, -6591.66, -60543.50, -97573.50, -127325.73, -113732.91, 0.000, 0.000, 0.000, 19:25:45.830
32, -6539.07, -6625.93, -6661.58, -6597.03, -60548.82, -97578.75, -127331.02, -113737.81, 0.000, 0.000, 0.000, 19:25:45.830
33, -6544.21, -6630.44, -6665.78, -6601.07, -60552.73, -97582.73, -127335.09, -113741.59, 0.000, 0.000, 0.000, 19:25:45.830
34, -6542.04, -6628.61, -6664.06, -6599.53, -60551.21, -97581.34, -127333.59, -113740.36, 0.000, 0.000, 0.000, 19:25:45.830
35, -6533.95, -6621.32, -6657.33, -6593.03, -60544.88, -97575.11, -127327.31, -113734.55, 0.000, 0.000, 0.000, 19:25:45.831
36, -6536.07, -6623.67, -6659.84, -6595.55, -60547.59, -97577.72, -127330.04, -113737.32, 0.000, 0.000, 0.000, 19:25:45.831
37, -6542.96, -6629.71, -6665.42, -6600.76, -60552.80, -97582.88, -127335.34, -113742.19, 0.000, 0.000, 0.000, 19:25:45.831
38, -6546.20, -6632.34, -6667.77, -6603.02, -60554.96, -97584.94, -127337.41, -113744.05, 0.036, -0.004, 0.980, 19:25:45.831
39, -6542.11, -6628.54, -6664.19, -6599.40, -60551.45, -97581.50, -127333.93, -113740.87, 0.000, 0.000, 0.000, 19:25:45.831
40, -6535.96, -6623.31, -6659.34, -6594.93, -60547.16, -97577.37, -127329.73, -113737.09, 0.000, 0.000, 0.000, 19:25:45.831
41, -6536.59, -6624.14, -6660.31, -6595.93, -60548.39, -97578.50, -127330.93, -113738.23, 0.000, 0.000, 0.000, 19:25:45.831
42, -6542.40, -6629.17, -6664.80, -6600.22, -60552.66, -97582.66, -127335.24, -113742.01, 0.000, 0.000, 0.000, 19:25:45.831
43, -6545.73, -6631.83, -6667.10, -6602.46, -60554.72, -97584.72, -127337.48, -113743.98, 0.000, 0.000, 0.000, 19:25:45.832
44, -6542.22, -6628.50, -6664.08, -6599.58, -60551.84, -97581.84, -127334.55, -113741.30, 0.000, 0.000, 0.000, 19:25:45.832
45, -6535.92, -6623.02, -6659.05, -6594.79, -60547.32, -97577.37, -127329.97, -113737.27, 0.000, 0.000, 0.000, 19:25:45.832
46, -6533.57, -6620.88, -6657.06, -6592.60, -60545.55, -97575.51, -127328.14, -113735.53, 0.000, 0.000, 0.000, 19:25:45.832
47, -6537.10, -6623.54, -6659.30, -6594.55, -60547.43, -97577.41, -127330.20, -113736.89, 0.000, 0.000, 0.000, 19:25:45.832
48, -6541.37, -6627.27, -6662.72, -6597.88, -60550.67, -97580.60, -127333.44, -113739.91, 0.038, -0.002, 0.980, 19:25:45.832
49, -6542.18, -6628.43, -6663.99, -6599.37, -60552.15, -97582.15, -127334.82, -113741.72, 0.000, 0.000, 0.000, 19:25:45.832
50, -6537.59, -6624.65, -6660.71, -6596.47, -60549.40, -97579.42, -127332.03, -113739.51, 0.000, 0.000, 0.000, 19:25:45.832
51, -6536.97, -6624.16, -6660.33, -6595.98, -60549.15, -97579.15, -127331.94, -113739.28, 0.000, 0.000, 0.000, 19:25:45.833
52, -6539.72, -6626.08, -6661.85, -6597.12, -60550.29, -97580.18, -127333.13, -113740.00, 0.000, 0.000, 0.000, 19:25:45.833
53, -6542.74, -6628.57, -6663.97, -6599.11, -60552.24, -97582.13, -127335.02, -113741.70, 0.000, 0.000, 0.000, 19:25:45.833
54, -6540.86, -6626.98, -6662.47, -6597.81, -60551.07, -97580.96, -127333.77, -113740.76, 0.000, 0.000, 0.000, 19:25:45.833
55, -6535.60, -6622.60, -6658.72, -6594.28, -60547.81, -97577.66, -127330.42, -113737.95, 0.000, 0.000, 0.000, 19:25:45.833
56, -6534.35, -6621.53, -6657.73, -6593.34, -60546.98, -97576.94, -127329.73, -113737.27, 0.000, 0.000, 0.000, 19:25:45.833
57, -6540.48, -6626.71, -6662.52, -6597.88, -60551.32, -97581.30, -127334.22, -113741.23, 0.000, 0.000, 0.000, 19:25:45.833
58, -6545.42, -6631.14, -6666.61, -6601.86, -60555.14, -97585.12, -127338.13, -113744.83, 0.038, 0.000, 0.980, 19:25:45.833
59, -6543.47, -6629.57, -6665.16, -6600.63, -60554.05, -97583.96, -127336.97, -113743.87, 0.000, 0.000, 0.000, 19:25:45.833
60, -6535.18, -6622.20, -6658.25, -6593.94, -60547.61, -97577.59, -127330.53, -113737.90, 0.000, 0.000, 0.000, 19:25:45.834
61, -6535.69, -6622.78, -6659.01, -6594.64, -60548.50, -97578.46, -127331.54, -113738.91, 0.000, 0.000, 0.000, 19:25:45.834
62, -6541.93, -6628.16, -6663.86, -6599.15, -60553.04, -97583.00, -127336.07, -113743.04, 0.000, 0.000, 0.000, 19:25:45.834
63, -6541.93, -6627.56, -6662.99, -6598.26, -60551.90, -97581.97, -127335.07, -113741.81, 0.000, 0.000, 0.000, 19:25:45.834
64, -6538.65, -6624.70, -6660.35, -6595.73, -60549.36, -97579.48, -127332.56, -113739.51, 0.000, 0.000, 0.000, 19:25:45.834
65, -6533.35, -6620.21, -6656.37, -6591.95, -60545.82, -97575.98, -127329.08, -113736.45, 0.000, 0.000, 0.000, 19:25:45.834
66, -6532.90, -6619.85, -6656.15, -6591.60, -60545.80, -97575.73, -127328.98, -113736.49, 0.000, 0.000, 0.000, 19:25:45.835
67, -6539.32, -6625.46, -6661.24, -6596.56, -60550.54, -97580.52, -127333.80, -113740.80, 0.000, 0.000, 0.000, 19:25:45.835
68, -6543.36, -6629.04, -6664.40, -6599.73, -60553.54, -97583.45, -127336.90, -113743.71, 0.036, 0.002, 0.972, 19:25:45.835
69, -6539.34, -6625.41, -6660.84, -6596.36, -60550.18, -97580.25, -127333.62, -113740.70, 0.000, 0.000, 0.000, 19:25:45.835
70, -6534.09, -6620.94, -6656.91, -6592.56, -60546.74, -97576.83, -127330.04, -113737.56, 0.000, 0.000, 0.000, 19:25:45.835
71, -6533.33, -6620.34, -6656.39, -6591.95, -60546.38, -97576.36, -127329.70, -113737.23, 0.000, 0.000, 0.000, 19:25:45.836
72, -6538.13, -6624.39, -6659.95, -6595.24, -60549.62, -97579.47, -127332.99, -113740.05, 0.000, 0.000, 0.000, 19:25:45.836
73, -6540.77, -6626.53, -6661.87, -6597.14, -60551.25, -97581.21, -127334.62, -113741.59, 0.000, 0.000, 0.000, 19:25:45.836
74, -6540.70, -6626.76, -6662.18, -6597.72, -60551.93, -97581.97, -127335.29, -113742.48, 0.000, 0.000, 0.000, 19:25:45.836
75, -6534.24, -6621.17, -6657.04, -6592.67, -60547.27, -97577.16, -127330.64, -113738.21, 0.000, 0.000, 0.000, 19:25:45.836
76, -6534.15, -6621.23, -6657.18, -6592.71, -60547.54, -97577.41, -127330.95, -113738.44, 0.000, 0.000, 0.000, 19:25:45.836
77, -6539.14, -6625.24, -6660.80, -6596.13, -60550.80, -97580.67, -127334.24, -113741.36, 0.000, 0.000, 0.000, 19:25:45.836
78, -6542.04, -6627.60, -6662.85, -6598.15, -60552.71, -97582.48, -127336.12, -113743.06, 0.000, 0.000, 0.000, 19:25:45.837
79, -6537.46, -6623.51, -6658.85, -6594.30, -60548.88, -97578.75, -127332.34, -113739.44, 0.034, 0.000, 0.976, 19:25:45.837
80, -6532.30, -6619.02, -6655.03, -6590.61, -60545.44, -97575.29, -127328.95, -113736.49, 0.000, 0.000, 0.000, 19:25:45.837
81, -6532.07, -6618.93, -6654.94, -6590.61, -60545.53, -97575.35, -127329.10, -113736.67, 0.000, 0.000, 0.000, 19:25:45.837
82, -6535.67, -6621.84, -6657.27, -6592.65, -60547.66, -97577.43, -127331.31, -113738.41, 0.000, 0.000, 0.000, 19:25:45.837
83, -6539.43, -6625.10, -6660.26, -6595.55, -60550.45, -97580.38, -127333.99, -113741.03, 0.000, 0.000, 0.000, 19:25:45.837
84, -6539.58, -6625.59, -6660.91, -6596.40, -60551.32, -97581.32, -127334.80, -113742.26, 0.000, 0.000, 0.000, 19:25:45.837
85, -6535.07, -6621.86, -6657.76, -6593.36, -60548.53, -97578.44, -127332.03, -113739.77, 0.000, 0.000, 0.000, 19:25:45.838
86, -6536.07, -6623.00, -6658.85, -6594.48, -60549.93, -97579.71, -127333.50, -113741.12, 0.000, 0.000, 0.000, 19:25:45.838
87, -6542.11, -6628.23, -6663.64, -6599.02, -60554.38, -97584.16, -127338.09, -113745.27, 0.000, 0.000, 0.000, 19:25:45.838
88, -6542.51, -6628.10, -6663.21, -6598.50, -60553.69, -97583.58, -127337.41, -113744.54, 0.000, 0.000, 0.000, 19:25:45.838
89, -6539.94, -6625.95, -6661.27, -6596.71, -60551.97, -97581.84, -127335.70, -113742.97, 0.040, 0.000, 0.978, 19:25:45.838
90, -6532.50, -6619.38, -6655.25, -6590.90, -60546.36, -97576.25, -127330.04, -113737.79, 0.000, 0.000, 0.000, 19:25:45.838
91, -6531.76, -6618.51, -6654.54, -6590.23, -60545.78, -97575.77, -127329.59, -113737.27, 0.000, 0.000, 0.000, 19:25:45.838
92, -6537.80, -6623.69, -6659.19, -6594.68, -60550.23, -97580.20, -127334.11, -113741.32, 0.000, 0.000, 0.000, 19:25:45.838
93, -6540.72, -6626.31, -6661.36, -6596.87, -60552.24, -97582.26, -127336.07, -113743.09, 0.000, 0.000, 0.000, 19:25:45.839
94, -6535.58, -6621.53, -6656.75, -6592.42, -60547.95, -97577.81, -127331.67, -113739.06, 0.000, 0.000, 0.000, 19:25:45.839
95, -6528.68, -6615.42, -6651.21, -6587.01, -60542.80, -97572.58, -127326.53, -113734.37, 0.000, 0.000, 0.000, 19:25:45.839
96, -6528.52, -6615.22, -6651.03, -6586.79, -60542.85, -97572.63, -127326.57, -113734.37, 0.000, 0.000, 0.000, 19:25:45.839
97, -6536.23, -6622.17, -6657.44, -6593.07, -60548.88, -97578.82, -127332.84, -113740.13, 0.000, 0.000, 0.000, 19:25:45.839
98, -6540.10, -6625.77, -6660.62, -6596.13, -60551.93, -97581.90, -127335.88, -113743.04, 0.000, 0.000, 0.000, 19:25:45.839
99, -6535.31, -6621.39, -6656.42, -6592.04, -60547.90, -97577.90, -127331.80, -113739.20, 0.044, -0.002, 0.978, 19:25:45.839
100, -6528.41, -6615.27, -6650.83, -6586.72, -60542.83, -97572.76, -127326.71, -113734.57, 0.000, 0.000, 0.000, 19:25:45.839
101, -6529.48, -6616.29, -6651.92, -6587.77, -60544.08, -97573.95, -127328.01, -113735.82, 0.000, 0.000, 0.000, 19:25:45.840
102, -6538.38, -6624.43, -6659.61, -6595.11, -60551.41, -97581.27, -127335.42, -113742.77, 0.000, 0.000, 0.000, 19:25:45.840
103, -6540.84, -6626.46, -6661.38, -6596.78, -60552.98, -97582.80, -127336.99, -113744.23, 0.000, 0.000, 0.000, 19:25:45.840
104, -6536.90, -6622.87, -6657.96, -6593.61, -60549.76, -97579.58, -127333.73, -113741.34, 0.000, 0.000, 0.000, 19:25:45.840
105, -6531.22, -6618.02, -6653.58, -6589.52, -60545.89, -97575.73, -127329.81, -113737.88, 0.000, 0.000, 0.000, 19:25:45.840
106, -6530.98, -6617.81, -6653.53, -6589.38, -60545.96, -97575.89, -127330.10, -113737.98, 0.000, 0.000, 0.000, 19:25:45.840
107, -6538.76, -6624.81, -6659.97, -6595.75, -60552.19, -97581.99, -127336.30, -113743.76, 0.000, 0.000, 0.000, 19:25:45.840
108, -6542.31, -6627.81, -6662.81, -6598.39, -60554.61, -97584.47, -127338.71, -113746.03, 0.000, 0.000, 0.000, 19:25:45.841
109, -6539.02, -6624.86, -6659.95, -6595.60, -60551.90, -97581.84, -127335.96, -113743.48, 0.036, 0.000, 0.978, 19:25:45.841
110, -6531.76, -6618.19, -6653.71, -6589.61, -60546.16, -97576.02, -127330.20, -113738.01, 0.000, 0.000, 0.000, 19:25:45.841
111, -6529.99, -6616.72, -6652.46, -6588.24, -60545.18, -97575.02, -127329.28, -113737.23, 0.000, 0.000, 0.000, 19:25:45.841
112, -6534.33, -6620.61, -6655.97, -6591.66, -60548.57, -97578.41, -127332.72, -113740.52, 0.000, 0.000, 0.000, 19:25:45.841
113, -6538.69, -6624.59, -6659.75, -6595.44, -60552.21, -97581.99, -127336.34, -113743.95, 0.000, 0.000, 0.000, 19:25:45.841
114, -6538.02, -6623.81, -6659.05, -6594.73, -60551.43, -97581.19, -127335.47, -113743.15, 0.000, 0.000, 0.000, 19:25:45.841
115, -6535.16, -6621.23, -6656.80, -6592.42, -60549.33, -97579.04, -127333.23, -113741.05, 0.000, 0.000, 0.000, 19:25:45.842
116, -6532.48, -6618.75, -6654.45, -6590.30, -60547.45, -97577.12, -127331.49, -113739.51, 0.000, 0.000, 0.000, 19:25:45.842
117, -6533.55, -6619.63, -6655.03, -6590.86, -60547.95, -97577.86, -127332.20, -113740.13, 0.000, 0.000, 0.000, 19:25:45.842
118, -6538.80, -6624.63, -6659.79, -6595.37, -60552.48, -97582.44, -127336.68, -113744.45, 0.000, 0.000, 0.000, 19:25:45.842
119, -6538.58, -6624.48, -6659.66, -6595.26, -60552.33, -97582.21, -127336.37, -113744.13, 0.040, -0.008, 0.984, 19:25:45.842
120, -6532.03, -6618.28, -6653.76, -6589.34, -60546.54, -97576.34, -127330.59, -113738.48, 0.000, 0.000, 0.000, 19:25:45.842
121, -6530.38, -6616.81, -6652.55, -6588.11, -60545.55, -97575.35, -127329.88, -113737.79, 0.000, 0.000, 0.000, 19:25:46.307
122, -6532.27, -6618.51, -6653.91, -6589.67, -60547.05, -97577.01, -127331.42, -113739.33, 0.000, 0.000, 0.000, 19:25:46.307
123, -6533.35, -6619.27, -6654.47, -6590.10, -60547.34, -97577.30, -127331.65, -113739.40, 0.000, 0.000, 0.000, 19:25:46.307
124, -6532.68, -6618.71, -6653.82, -6589.43, -60546.71, -97576.56, -127330.98, -113738.68, 0.000, 0.000, 0.000, 19:25:46.307
125, -6529.59, -6615.87, -6651.23, -6586.88, -60544.37, -97574.10, -127328.65, -113736.49, 0.000, 0.000, 0.000, 19:25:46.307
126, -6529.55, -6615.98, -6651.66, -6587.28, -60545.02, -97574.77, -127329.37, -113737.45, 0.000, 0.000, 0.000, 19:25:46.308
127, -6530.96, -6617.26, -6652.59, -6588.29, -60546.07, -97575.93, -127330.48, -113738.48, 0.000, 0.000, 0.000, 19:25:46.308
128, -6533.35, -6619.18, -6654.36, -6590.01, -60547.68, -97577.41, -127332.01, -113739.80, 0.000, 0.000, 0.000, 19:25:46.308
129, -6533.12, -6618.91, -6654.11, -6589.72, -60547.39, -97577.05, -127331.60, -113739.42, 0.036, -0.004, 0.988, 19:25:46.308
130, -6529.50, -6615.69, -6651.12, -6586.63, -60544.59, -97574.13, -127328.81, -113736.67, 0.000, 0.000, 0.000, 19:25:46.308
131, -6528.70, -6615.22, -6650.76, -6586.48, -60544.59, -97574.28, -127329.05, -113737.07, 0.000, 0.000, 0.000, 19:25:46.308
132, -6533.44, -6619.71, -6655.08, -6590.86, -60548.86, -97578.75, -127333.57, -113741.59, 0.000, 0.000, 0.000, 19:25:46.309
133, -6533.93, -6619.76, -6654.90, -6590.61, -60548.46, -97578.44, -127333.19, -113741.05, 0.000, 0.000, 0.000, 19:25:46.309
134, -6532.39, -6618.22, -6653.33, -6589.03, -60546.89, -97576.73, -127331.42, -113739.28, 0.000, 0.000, 0.000, 19:25:46.309
135, -6533.28, -6619.33, -6654.81, -6590.39, -60548.57, -97578.23, -127332.97, -113740.96, 0.000, 0.000, 0.000, 19:25:46.309
136, -6532.45, -6618.78, -6654.40, -6590.12, -60548.46, -97578.26, -127333.10, -113741.16, 0.000, 0.000, 0.000, 19:25:46.309
137, -6533.28, -6619.45, -6654.94, -6590.68, -60549.02, -97578.80, -127333.70, -113741.77, 0.000, 0.000, 0.000, 19:25:46.309
138, -6534.78, -6620.50, -6655.72, -6591.44, -60549.58, -97579.38, -127334.22, -113742.19, 0.000, 0.000, 0.000, 19:25:46.309
139, -6534.00, -6619.71, -6654.94, -6590.61, -60548.71, -97578.48, -127333.32, -113741.34, 0.036, -0.004, 0.980, 19:25:46.309
140, -6529.53, -6615.47, -6651.03, -6586.77, -60545.04, -97574.73, -127329.55, -113737.67, 0.000, 0.000, 0.000, 19:25:46.310
141, -6527.71, -6613.97, -6649.69, -6585.58, -60544.05, -97573.77, -127328.79, -113736.98, 0.000, 0.000, 0.000, 19:25:46.310
142, -6530.55, -6616.67, -6652.15, -6587.95, -60546.45, -97576.29, -127331.34, -113739.46, 0.000, 0.000, 0.000, 19:25:46.310
143, -6534.40, -6620.03, -6655.30, -6590.95, -60549.40, -97579.30, -127334.24, -113742.23, 0.000, 0.000, 0.000, 19:25:46.310
144, -6534.17, -6619.71, -6655.10, -6590.66, -60549.13, -97578.93, -127333.84, -113741.83, 0.000, 0.000, 0.000, 19:25:46.310
145, -6531.09, -6616.92, -6652.55, -6588.11, -60546.85, -97576.42, -127331.49, -113739.51, 0.000, 0.000, 0.000, 19:25:46.310
146, -6528.21, -6614.40, -6650.16, -6585.90, -60544.70, -97574.44, -127329.59, -113737.77, 0.000, 0.000, 0.000, 19:25:46.310
147, -6528.77, -6614.71, -6650.23, -6586.08, -60544.70, -97574.66, -127329.75, -113737.97, 0.000, 0.000, 0.000, 19:25:46.311
148, -6532.39, -6617.93, -6653.35, -6589.07, -60547.61, -97577.41, -127332.54, -113740.54, 0.000, 0.000, 0.000, 19:25:46.311
149, -6531.78, -6617.17, -6652.75, -6588.42, -60547.03, -97576.70, -127331.87, -113739.84, 0.032, -0.004, 0.982, 19:25:46.311
150, -6529.88, -6615.42, -6651.39, -6586.84, -60545.82, -97575.40, -127330.51, -113738.66, 0.000, 0.000, 0.000, 19:25:46.311
151, -6527.40, -6613.28, -6649.42, -6585.00, -60544.14, -97573.84, -127329.03, -113737.38, 0.000, 0.000, 0.000, 19:25:46.311
152, -6529.37, -6615.02, -6650.92, -6586.75, -60545.73, -97575.48, -127330.75, -113739.06, 0.000, 0.000, 0.000, 19:25:46.311
153, -6529.95, -6615.31, -6650.90, -6586.63, -60545.53, -97575.30, -127330.51, -113738.68, 0.000, 0.000, 0.000, 19:25:46.311
154, -6530.26, -6615.69, -6651.14, -6586.86, -60545.73, -97575.40, -127330.66, -113738.84, 0.000, 0.000, 0.000, 19:25:46.312
155, -6531.02, -6616.76, -6652.48, -6588.11, -60547.23, -97576.78, -127332.05, -113740.34, 0.000, 0.000, 0.000, 19:25:46.312
156, -6530.38, -6616.52, -6652.30, -6588.13, -60547.43, -97577.07, -127332.50, -113740.94, 0.000, 0.000, 0.000, 19:25:46.312
157, -6530.40, -6616.36, -6651.92, -6587.75, -60546.94, -97576.85, -127332.27, -113740.55, 0.000, 0.000, 0.000, 19:25:46.312
158, -6532.10, -6617.61, -6653.02, -6588.60, -60547.83, -97577.68, -127333.01, -113741.14, 0.000, 0.000, 0.000, 19:25:46.312
159, -6532.74, -6618.33, -6653.80, -6589.29, -60548.59, -97578.26, -127333.59, -113741.79, 0.040, -0.004, 0.978, 19:25:46.312
160, -6533.35, -6619.09, -6654.92, -6590.39, -60549.93, -97579.45, -127334.93, -113743.20, 0.000, 0.000, 0.000, 19:25:46.312
161, -6534.00, -6620.14, -6656.10, -6591.75, -60551.41, -97581.05, -127336.59, -113745.01, 0.000, 0.000, 0.000, 19:25:46.313
162, -6533.77, -6619.69, -6655.43, -6591.06, -60550.70, -97580.47, -127336.01, -113744.38, 0.000, 0.000, 0.000, 19:25:46.313
163, -6533.66, -6619.22, -6654.70, -6590.26, -60549.80, -97579.53, -127335.00, -113743.20, 0.000, 0.000, 0.000, 19:25:46.313
164, -6531.49, -6616.99, -6652.53, -6588.02, -60547.54, -97577.23, -127332.67, -113740.89, 0.000, 0.000, 0.000, 19:25:46.313
165, -6529.57, -6615.40, -6651.16, -6586.72, -60546.49, -97576.00, -127331.55, -113739.87, 0.000, 0.000, 0.000, 19:25:46.313
166, -6528.59, -6614.71, -6650.63, -6586.25, -60546.27, -97575.84, -127331.45, -113740.00, 0.000, 0.000, 0.000, 19:25:46.313
167, -6528.90, -6614.95, -6650.65, -6586.25, -60546.11, -97575.95, -127331.49, -113739.93, 0.000, 0.000, 0.000, 19:25:46.314
168, -6530.22, -6615.78, -6651.25, -6586.79, -60546.65, -97576.41, -127331.94, -113740.13, 0.000, 0.000, 0.000, 19:25:46.314
169, -6530.75, -6616.25, -6651.74, -6587.24, -60547.12, -97576.78, -127332.27, -113740.49, 0.000, 0.000, 0.000, 19:25:46.314
170, -6528.59, -6614.42, -6650.34, -6585.74, -60545.75, -97575.42, -127330.98, -113739.24, 0.044, 0.000, 0.976, 19:25:46.314
171, -6526.40, -6612.45, -6648.57, -6584.02, -60544.30, -97574.03, -127329.66, -113738.13, 0.000, 0.000, 0.000, 19:25:46.314
172, -6527.36, -6613.23, -6649.00, -6584.47, -60544.73, -97574.55, -127330.20, -113738.57, 0.000, 0.000, 0.000, 19:25:46.314
173, -6530.26, -6615.71, -6651.30, -6586.70, -60546.71, -97576.52, -127332.25, -113740.45, 0.000, 0.000, 0.000, 19:25:46.314
174, -6530.91, -6616.14, -6651.86, -6587.19, -60547.23, -97577.01, -127332.67, -113740.85, 0.000, 0.000, 0.000, 19:25:46.314
175, -6529.35, -6614.91, -6650.98, -6586.21, -60546.52, -97576.18, -127331.94, -113740.29, 0.000, 0.000, 0.000, 19:25:46.315
176, -6528.63, -6614.64, -6650.74, -6586.14, -60546.54, -97576.41, -127332.20, -113740.67, 0.000, 0.000, 0.000, 19:25:46.315
177, -6530.26, -6616.27, -6651.90, -6587.55, -60547.88, -97577.79, -127333.66, -113742.03, 0.000, 0.000, 0.000, 19:25:46.315
178, -6531.56, -6617.08, -6652.71, -6588.20, -60548.44, -97578.23, -127333.95, -113742.30, 0.000, 0.000, 0.000, 19:25:46.315
179, -6530.82, -6616.43, -6652.04, -6587.53, -60547.77, -97577.45, -127333.16, -113741.45, 0.000, 0.000, 0.000, 19:25:46.315
180, -6528.85, -6614.75, -6650.65, -6586.10, -60546.54, -97576.02, -127331.94, -113740.24, 0.046, -0.002, 0.976, 19:25:46.315
181, -6528.70, -6614.73, -6650.90, -6586.34, -60546.98, -97576.70, -127332.59, -113741.19, 0.000, 0.000, 0.000, 19:25:46.315
182, -6532.68, -6618.40, -6654.32, -6589.79, -60550.34, -97580.20, -127336.16, -113744.72, 0.000, 0.000, 0.000, 19:25:46.315
183, -6534.67, -6619.96, -6655.57, -6591.02, -60551.54, -97581.25, -127337.23, -113745.54, 0.000, 0.000, 0.000, 19:25:46.316
184, -6534.51, -6619.94, -6655.57, -6590.90, -60551.48, -97581.01, -127336.97, -113745.32, 0.000, 0.000, 0.000, 19:25:46.316
185, -6532.23, -6617.99, -6653.87, -6589.29, -60550.02, -97579.42, -127335.47, -113743.93, 0.000, 0.000, 0.000, 19:25:46.316
186, -6530.75, -6616.83, -6652.75, -6588.40, -60549.29, -97578.75, -127335.05, -113743.60, 0.000, 0.000, 0.000, 19:25:46.316
187, -6533.88, -6619.67, -6655.41, -6591.02, -60551.81, -97581.41, -127337.70, -113746.21, 0.000, 0.000, 0.000, 19:25:46.316
188, -6535.96, -6621.35, -6656.95, -6592.40, -60553.09, -97582.62, -127338.82, -113747.17, 0.000, 0.000, 0.000, 19:25:46.316
189, -6533.73, -6619.04, -6654.76, -6590.01, -60550.79, -97580.34, -127336.45, -113744.83, 0.000, 0.000, 0.000, 19:25:46.316
190, -6530.08, -6615.69, -6651.63, -6586.92, -60548.04, -97577.41, -127333.62, -113742.08, 0.044, 0.002, 0.978, 19:25:46.316
191, -6529.57, -6615.60, -6651.59, -6587.06, -60548.23, -97577.72, -127333.91, -113742.70, 0.000, 0.000, 0.000, 19:25:46.317
192, -6529.59, -6615.54, -6651.07, -6586.66, -60547.63, -97577.37, -127333.57, -113742.23, 0.000, 0.000, 0.000, 19:25:46.317
193, -6531.94, -6617.46, -6652.86, -6588.31, -60549.31, -97578.93, -127335.13, -113743.55, 0.000, 0.000, 0.000, 19:25:46.317
194, -6531.49, -6616.99, -6652.48, -6587.84, -60548.95, -97578.41, -127334.64, -113743.04, 0.000, 0.000, 0.000, 19:25:46.317
195, -6527.69, -6613.50, -6649.17, -6584.56, -60545.87, -97575.17, -127331.54, -113740.13, 0.000, 0.000, 0.000, 19:25:46.317
196, -6525.73, -6611.80, -6647.61, -6583.13, -60544.50, -97573.97, -127330.51, -113739.20, 0.000, 0.000, 0.000, 19:25:46.317
197, -6528.52, -6614.35, -6649.91, -6585.47, -60546.76, -97576.41, -127332.90, -113741.45, 0.000, 0.000, 0.000, 19:25:46.317
198, -6530.64, -6616.05, -6651.41, -6586.86, -60548.13, -97577.61, -127334.11, -113742.57, 0.000, 0.000, 0.000, 19:25:46.317
199, -6529.84, -6615.15, -6650.69, -6586.03, -60547.36, -97576.73, -127333.30, -113741.67, 0.000, 0.000, 0.000, 19:25:46.318
200, -6530.71, -6616.29, -6652.24, -6587.53, -60548.97, -97578.34, -127334.89, -113743.44, 0.038, -0.004, 0.980, 19:25:46.318
201, -6529.41, -6615.31, -6651.36, -6586.77, -60548.41, -97577.90, -127334.53, -113743.24, 0.000, 0.000, 0.000, 19:25:46.318
202, -6528.27, -6613.95, -6649.78, -6585.18, -60546.74, -97576.29, -127332.99, -113741.59, 0.000, 0.000, 0.000, 19:25:46.318
203, -6530.87, -6616.36, -6651.92, -6587.19, -60548.57, -97578.30, -127334.80, -113743.27, 0.000, 0.000, 0.000, 19:25:46.318
204, -6530.53, -6615.96, -6651.66, -6586.90, -60548.35, -97577.84, -127334.28, -113742.91, 0.000, 0.000, 0.000, 19:25:46.318
205, -6527.25, -6613.03, -6648.91, -6584.09, -60545.87, -97575.17, -127331.87, -113740.45, 0.000, 0.000, 0.000, 19:25:46.318
206, -6526.87, -6613.01, -6648.95, -6584.24, -60546.09, -97575.60, -127332.45, -113741.07, 0.000, 0.000, 0.000, 19:25:46.318
207, -6528.18, -6614.06, -6649.73, -6585.16, -60546.89, -97576.56, -127333.34, -113742.05, 0.000, 0.000, 0.000, 19:25:46.319
208, -6532.45, -6617.86, -6653.44, -6588.69, -60550.38, -97579.95, -127336.68, -113745.27, 0.000, 0.000, 0.000, 19:25:46.319
209, -6532.10, -6617.50, -6653.18, -6588.31, -60550.02, -97579.51, -127336.23, -113744.76, 0.000, 0.000, 0.000, 19:25:46.319
210, -6530.06, -6615.71, -6651.61, -6586.88, -60548.79, -97578.17, -127335.00, -113743.58, 0.036, -0.006, 0.978, 19:25:46.319
211, -6527.63, -6613.59, -6649.58, -6585.02, -60547.03, -97576.63, -127333.46, -113742.21, 0.000, 0.000, 0.000, 19:25:46.319
212, -6530.51, -6616.25, -6651.92, -6587.37, -60549.40, -97579.02, -127335.85, -113744.58, 0.000, 0.000, 0.000, 19:25:46.319
213, -6531.20, -6616.76, -6652.15, -6587.35, -60549.36, -97578.88, -127335.70, -113744.36, 0.000, 0.000, 0.000, 19:25:46.319
214, -6530.31, -6615.92, -6651.34, -6586.57, -60548.62, -97578.05, -127334.84, -113743.42, 0.000, 0.000, 0.000, 19:25:46.319
215, -6528.32, -6614.15, -6649.96, -6585.20, -60547.43, -97576.80, -127333.68, -113742.37, 0.000, 0.000, 0.000, 19:25:46.319
216, -6525.23, -6611.20, -6647.19, -6582.61, -60544.95, -97574.34, -127331.40, -113740.23, 0.000, 0.000, 0.000, 19:25:46.320
217, -6526.98, -6612.76, -6648.35, -6583.91, -60546.11, -97575.62, -127332.54, -113741.41, 0.000, 0.000, 0.000, 19:25:46.320
218, -6528.32, -6613.86, -6649.13, -6584.56, -60546.70, -97576.16, -127333.05, -113741.74, 0.000, 0.000, 0.000, 19:25:46.320
219, -6529.01, -6614.46, -6649.91, -6585.20, -60547.45, -97576.65, -127333.68, -113742.41, 0.000, 0.000, 0.000, 19:25:46.320
220, -6529.26, -6614.98, -6650.81, -6586.16, -60548.48, -97577.66, -127334.73, -113743.53, 0.038, -0.002, 0.978, 19:25:46.320
221, -6527.98, -6614.04, -6649.93, -6585.40, -60547.81, -97577.21, -127334.38, -113743.24, 0.000, 0.000, 0.000, 19:25:46.320
222, -6526.31, -6612.09, -6647.77, -6583.21, -60545.58, -97575.04, -127332.19, -113741.01, 0.000, 0.000, 0.000, 19:25:46.320
223, -6526.55, -6612.00, -6647.43, -6582.97, -60545.09, -97574.62, -127331.65, -113740.24, 0.000, 0.000, 0.000, 19:25:46.321
224, -6527.45, -6612.92, -6648.33, -6583.75, -60545.96, -97575.30, -127332.36, -113741.19, 0.000, 0.000, 0.000, 19:25:46.321
225, -6526.02, -6611.85, -6647.48, -6582.97, -60545.46, -97574.66, -127331.71, -113740.70, 0.000, 0.000, 0.000, 19:25:46.321
226, -6528.43, -6614.55, -6650.29, -6585.90, -60548.55, -97578.02, -127335.18, -113744.13, 0.000, 0.000, 0.000, 19:25:46.321
227, -6529.66, -6615.49, -6650.90, -6586.66, -60549.13, -97578.68, -127335.91, -113744.76, 0.000, 0.000, 0.000, 19:25:46.321
228, -6529.15, -6614.64, -6649.84, -6585.47, -60547.81, -97577.30, -127334.45, -113743.20, 0.000, 0.000, 0.000, 19:25:46.321
229, -6527.29, -6612.81, -6648.17, -6583.66, -60546.11, -97575.46, -127332.48, -113741.34, 0.000, 0.000, 0.000, 19:25:46.321
230, -6525.66, -6611.40, -6647.23, -6582.70, -60545.35, -97574.57, -127331.76, -113740.65, 0.036, 0.000, 0.980, 19:25:46.322
231, -6525.37, -6611.33, -6647.32, -6582.97, -60545.71, -97575.13, -127332.54, -113741.45, 0.000, 0.000, 0.000, 19:25:46.322
232, -6529.77, -6615.49, -6651.14, -6586.81, -60549.51, -97578.98, -127336.38, -113745.27, 0.000, 0.000, 0.000, 19:25:46.322
233, -6531.45, -6616.85, -6652.21, -6587.82, -60550.38, -97579.84, -127337.05, -113746.08, 0.000, 0.000, 0.000, 19:25:46.322
234, -6529.93, -6615.27, -6650.85, -6586.32, -60548.95, -97578.23, -127335.41, -113744.47, 0.000, 0.000, 0.000, 19:25:46.322
235, -6525.50, -6611.22, -6647.12, -6582.72, -60545.46, -97574.68, -127331.89, -113740.94, 0.000, 0.000, 0.000, 19:25:46.322
236, -6525.57, -6611.51, -6647.45, -6583.30, -60546.11, -97575.55, -127332.85, -113741.90, 0.000, 0.000, 0.000, 19:25:46.322
237, -6528.50, -6614.24, -6649.84, -6585.58, -60548.30, -97577.86, -127335.23, -113744.20, 0.000, 0.000, 0.000, 19:25:46.323
238, -6528.41, -6613.75, -6649.11, -6584.76, -60547.39, -97576.80, -127334.24, -113743.09, 0.000, 0.000, 0.000, 19:25:46.323
239, -6528.09, -6613.30, -6648.86, -6584.49, -60547.14, -97576.47, -127333.86, -113742.70, 0.000, 0.000, 0.000, 19:25:46.323
240, -6526.75, -6612.18, -6648.15, -6583.73, -60546.61, -97575.82, -127333.30, -113742.23, 0.036, -0.006, 0.980, 19:25:46.323
241, -6524.50, -6610.24, -6646.31, -6582.07, -60545.09, -97574.39, -127331.98, -113741.05, 0.000, 0.000, 0.000, 19:25:46.789
242, -6525.84, -6611.44, -6647.19, -6582.90, -60545.80, -97575.27, -127332.79, -113741.81, 0.000, 0.000, 0.000, 19:25:46.789
243, -6527.33, -6612.58, -6648.21, -6583.82, -60546.61, -97576.02, -127333.50, -113742.30, 0.000, 0.000, 0.000, 19:25:46.789
244, -6525.50, -6610.73, -6646.38, -6582.05, -60544.77, -97574.10, -127331.47, -113740.40, 0.000, 0.000, 0.000, 19:25:46.789
245, -6522.51, -6608.09, -6643.99, -6579.68, -60542.54, -97571.82, -127329.37, -113738.44, 0.000, 0.000, 0.000, 19:25:46.789
246, -6524.56, -6610.46, -6646.31, -6582.19, -60545.26, -97574.70, -127332.41, -113741.56, 0.000, 0.000, 0.000, 19:25:46.789
247, -6527.45, -6613.12, -6648.68, -6584.49, -60547.50, -97577.05, -127334.76, -113743.82, 0.000, 0.000, 0.000, 19:25:46.790
248, -6529.70, -6615.04, -6650.38, -6586.12, -60549.13, -97578.52, -127336.07, -113745.05, 0.000, 0.000, 0.000, 19:25:46.790
249, -6527.36, -6612.67, -6648.12, -6583.97, -60546.94, -97576.13, -127333.68, -113742.70, 0.000, 0.000, 0.000, 19:25:46.790
250, -6524.94, -6610.62, -6646.38, -6582.23, -60545.26, -97574.44, -127332.16, -113741.25, 0.038, -0.010, 0.984, 19:25:46.790
251, -6523.29, -6609.21, -6645.11, -6581.00, -60544.21, -97573.54, -127331.38, -113740.55, 0.000, 0.000, 0.000, 19:25:46.790
252, -6524.36, -6610.01, -6645.55, -6581.60, -60544.64, -97574.03, -127331.87, -113741.03, 0.000, 0.000, 0.000, 19:25:46.790
253, -6524.27, -6609.50, -6644.93, -6580.78, -60543.88, -97573.03, -127330.98, -113739.89, 0.000, 0.000, 0.000, 19:25:46.790
254, -6523.67, -6608.99, -6644.57, -6580.22, -60543.41, -97572.45, -127330.38, -113739.28, 0.000, 0.000, 0.000, 19:25:46.790
255, -6520.32, -6605.99, -6641.87, -6577.56, -60540.95, -97570.01, -127327.80, -113736.91, 0.000, 0.000, 0.000, 19:25:46.791
0, -6519.96, -6605.77, -6641.64, -6577.56, -60541.13, -97570.23, -127328.27, -113737.38, 0.000, 0.000, 0.000, 19:25:46.791
1, -6523.85, -6609.37, -6645.04, -6580.96, -60544.30, -97573.63, -127331.58, -113740.67, 0.000, 0.000, 0.000, 19:25:46.791
2, -6526.17, -6611.44, -6646.78, -6582.70, -60545.89, -97575.24, -127333.05, -113742.05, 0.000, 0.000, 0.000, 19:25:46.791
3, -6523.49, -6608.90, -6644.30, -6580.13, -60543.43, -97572.52, -127330.46, -113739.40, 0.000, 0.000, 0.000, 19:25:46.791
4, -6522.17, -6607.78, -6643.59, -6579.50, -60542.94, -97571.95, -127329.95, -113738.99, 0.000, 0.000, 0.000, 19:25:46.791
5, -6519.78, -6605.63, -6641.40, -6577.49, -60541.06, -97570.30, -127328.38, -113737.56, 0.036, -0.004, 0.982, 19:25:46.791
6, -6522.60, -6608.16, -6643.56, -6579.73, -60543.12, -97572.54, -127330.53, -113739.73, 0.000, 0.000, 0.000, 19:25:46.792
7, -6524.52, -6609.72, -6645.04, -6581.05, -60544.44, -97573.68, -127331.71, -113740.78, 0.000, 0.000, 0.000, 19:25:46.792
8, -6524.07, -6609.23, -6644.70, -6580.76, -60544.08, -97573.19, -127331.27, -113740.34, 0.000, 0.000, 0.000, 19:25:46.792
9, -6522.51, -6608.00, -6643.70, -6579.77, -60543.32, -97572.36, -127330.51, -113739.73, 0.000, 0.000, 0.000, 19:25:46.792
10, -6521.05, -6606.82, -6642.60, -6578.77, -60542.43, -97571.66, -127329.91, -113739.22, 0.000, 0.000, 0.000, 19:25:46.792
11, -6523.22, -6608.74, -6644.19, -6580.42, -60543.92, -97573.30, -127331.54, -113740.73, 0.000, 0.000, 0.000, 19:25:46.792
12, -6523.38, -6608.54, -6643.85, -6580.00, -60543.36, -97572.71, -127330.82, -113740.02, 0.000, 0.000, 0.000, 19:25:46.792
13, -6521.95, -6607.24, -6642.54, -6578.65, -60542.09, -97571.40, -127329.41, -113738.68, 0.000, 0.000, 0.000, 19:25:46.793
14, -6521.08, -6606.66, -6642.25, -6578.36, -60542.07, -97571.27, -127329.41, -113738.63, 0.000, 0.000, 0.000, 19:25:46.793
15, -6522.15, -6607.94, -6643.50, -6579.82, -60543.70, -97573.09, -127331.34, -113740.70, 0.040, -0.002, 0.988, 19:25:46.793
16, -6523.94, -6609.43, -6644.73, -6581.11, -60544.70, -97574.30, -127332.45, -113741.81, 0.000, 0.000, 0.000, 19:25:46.793
17, -6524.18, -6609.37, -6644.57, -6580.85, -60544.48, -97573.79, -127331.98, -113741.12, 0.000, 0.000, 0.000, 19:25:46.793
18, -6522.44, -6607.76, -6642.98, -6579.10, -60542.96, -97572.13, -127330.30, -113739.42, 0.000, 0.000, 0.000, 19:25:46.793
19, -6519.04, -6604.58, -6640.17, -6576.35, -60540.39, -97569.36, -127327.71, -113736.94, 0.000, 0.000, 0.000, 19:25:46.793
20, -6521.21, -6607.02, -6642.63, -6578.95, -60542.98, -97572.20, -127330.75, -113740.11, 0.000, 0.000, 0.000, 19:25:46.793
21, -6523.16, -6608.56, -6643.97, -6580.26, -60544.19, -97573.50, -127332.05, -113741.36, 0.000, 0.000, 0.000, 19:25:46.794
22, -6524.41, -6609.43, -6644.70, -6580.89, -60544.82, -97574.01, -127332.45, -113741.63, 0.000, 0.000, 0.000, 19:25:46.794
23, -6524.12, -6609.34, -6644.64, -6580.71, -60544.77, -97573.90, -127332.27, -113741.45, 0.000, 0.000, 0.000, 19:25:46.794
24, -6520.54, -6606.08, -6641.69, -6577.81, -60542.02, -97571.09, -127329.57, -113738.84, 0.000, 0.000, 0.000, 19:25:46.794
25, -6519.94, -6605.59, -6641.28, -6577.63, -60541.80, -97571.10, -127329.66, -113739.17, 0.038, -0.002, 0.980, 19:25:46.794
26, -6524.07, -6609.41, -6644.86, -6581.25, -60545.31, -97574.64, -127333.16, -113742.68, 0.000, 0.000, 0.000, 19:25:46.794
27, -6525.86, -6610.84, -6646.13, -6582.45, -60546.34, -97575.64, -127334.15, -113743.46, 0.000, 0.000, 0.000, 19:25:46.794
28, -6525.90, -6610.95, -6646.34, -6582.63, -60546.47, -97575.73, -127334.22, -113743.48, 0.000, 0.000, 0.000, 19:25:46.794
29, -6523.42, -6608.78, -6644.48, -6580.87, -60544.97, -97574.01, -127332.59, -113742.08, 0.000, 0.000, 0.000, 19:25:46.795
30, -6522.04, -6607.65, -6643.41, -6579.84, -60544.19, -97573.25, -127332.01, -113741.59, 0.000, 0.000, 0.000, 19:25:46.795
31, -6524.29, -6609.59, -6645.02, -6581.43, -60545.71, -97574.88, -127333.62, -113743.13, 0.000, 0.000, 0.000, 19:25:46.795
32, -6527.47, -6612.41, -6647.68, -6583.91, -60548.17, -97577.30, -127335.96, -113745.30, 0.000, 0.000, 0.000, 19:25:46.795
33, -6525.68, -6610.66, -6646.04, -6582.28, -60546.58, -97575.64, -127334.24, -113743.60, 0.000, 0.000, 0.000, 19:25:46.795
34, -6523.62, -6608.90, -6644.53, -6580.89, -60545.26, -97574.37, -127333.03, -113742.48, 0.000, 0.000, 0.000, 19:25:46.795
35, -6525.26, -6610.66, -6646.47, -6582.92, -60547.41, -97576.70, -127335.36, -113745.07, 0.036, -0.004, 0.982, 19:25:46.795
36, -6525.06, -6610.28, -6645.71, -6582.12, -60546.58, -97575.89, -127334.55, -113744.18, 0.000, 0.000, 0.000, 19:25:46.796
37, -6526.80, -6611.91, -6647.10, -6583.37, -60547.72, -97577.05, -127335.65, -113745.05, 0.000, 0.000, 0.000, 19:25:46.796
38, -6524.94, -6610.06, -6645.29, -6581.56, -60545.98, -97575.17, -127333.73, -113743.15, 0.000, 0.000, 0.000, 19:25:46.796
39, -6520.63, -6606.01, -6641.55, -6577.92, -60542.49, -97571.48, -127330.22, -113739.84, 0.000, 0.000, 0.000, 19:25:46.796
40, -6518.60, -6604.18, -6639.79, -6576.24, -60540.91, -97570.13, -127329.01, -113738.79, 0.000, 0.000, 0.000, 19:25:46.796
41, -6519.80, -6605.12, -6640.44, -6576.91, -60541.35, -97570.73, -127329.59, -113739.24, 0.000, 0.000, 0.000, 19:25:46.796
42, -6522.22, -6607.22, -6642.40, -6578.74, -60543.21, -97572.45, -127331.34, -113740.76, 0.000, 0.000, 0.000, 19:25:46.797
43, -6522.78, -6607.94, -6643.25, -6579.46, -60544.14, -97573.23, -127331.94, -113741.48, 0.000, 0.000, 0.000, 19:25:46.797
44, -6520.96, -6606.44, -6642.09, -6578.23, -60543.18, -97572.24, -127331.09, -113740.63, 0.000, 0.000, 0.000, 19:25:46.797
45, -6518.75, -6604.47, -6640.08, -6576.46, -60541.46, -97570.70, -127329.70, -113739.33, 0.034, -0.004, 0.980, 19:25:46.797
46, -6520.76, -6606.21, -6641.37, -6577.78, -60542.65, -97571.91, -127330.89, -113740.55, 0.000, 0.000, 0.000, 19:25:46.797
47, -6523.11, -6608.32, -6643.30, -6579.62, -60544.32, -97573.52, -127332.54, -113742.01, 0.000, 0.000, 0.000, 19:25:46.797
48, -6522.44, -6607.58, -6642.76, -6579.12, -60543.77, -97572.83, -127331.94, -113741.34, 0.000, 0.000, 0.000, 19:25:46.798
49, -6520.83, -6606.28, -6641.84, -6578.19, -60543.18, -97572.16, -127331.23, -113740.83, 0.000, 0.000, 0.000, 19:25:46.798
50, -6522.40, -6608.09, -6643.65, -6580.17, -60545.26, -97574.41, -127333.64, -113743.35, 0.000, 0.000, 0.000, 19:25:46.798
51, -6524.88, -6610.37, -6645.62, -6582.23, -60547.12, -97576.31, -127335.54, -113745.12, 0.000, 0.000, 0.000, 19:25:46.798
52, -6527.07, -6612.25, -6647.27, -6583.88, -60548.66, -97577.72, -127336.88, -113746.30, 0.000, 0.000, 0.000, 19:25:46.798
53, -6525.23, -6610.44, -6645.49, -6581.98, -60546.85, -97575.93, -127335.07, -113744.49, 0.000, 0.000, 0.000, 19:25:46.798
54, -6523.07, -6608.52, -6643.99, -6580.51, -60545.58, -97574.50, -127333.77, -113743.42, 0.000, 0.000, 0.000, 19:25:46.798
55, -6521.43, -6607.09, -6642.58, -6579.21, -60544.44, -97573.54, -127332.77, -113742.59, 0.038, -0.002, 0.976, 19:25:46.798
56, -6521.61, -6607.02, -6642.25, -6578.81, -60543.92, -97573.16, -127332.41, -113742.16, 0.000, 0.000, 0.000, 19:25:46.799
57, -6522.33, -6607.44, -6642.54, -6578.99, -60543.99, -97573.23, -127332.43, -113741.97, 0.000, 0.000, 0.000, 19:25:46.799
58, -6522.28, -6607.47, -6642.65, -6579.08, -60544.17, -97573.12, -127332.38, -113741.95, 0.000, 0.000, 0.000, 19:25:46.799
59, -6518.82, -6604.31, -6639.88, -6576.20, -60541.53, -97570.50, -127329.81, -113739.58, 0.000, 0.000, 0.000, 19:25:46.799
60, -6519.56, -6605.25, -6640.84, -6577.38, -60542.74, -97571.93, -127331.27, -113741.23, 0.000, 0.000, 0.000, 19:25:46.799
61, -6522.31, -6607.67, -6642.96, -6579.57, -60544.77, -97574.13, -127333.34, -113743.15, 0.000, 0.000, 0.000, 19:25:46.799
62, -6522.69, -6607.71, -6642.87, -6579.26, -60544.55, -97573.79, -127332.95, -113742.59, 0.000, 0.000, 0.000, 19:25:46.799
63, -6523.27, -6608.36, -6643.63, -6579.95, -60545.33, -97574.34, -127333.57, -113743.27, 0.000, 0.000, 0.000, 19:25:46.799
64, -6521.75, -6607.09, -6642.58, -6579.19, -60544.64, -97573.61, -127332.95, -113742.70, 0.000, 0.000, 0.000, 19:25:46.799
65, -6522.06, -6607.56, -6643.07, -6579.95, -60545.42, -97574.55, -127333.95, -113743.87, 0.036, -0.002, 0.980, 19:25:46.800
66, -6523.56, -6608.76, -6644.15, -6580.91, -60546.29, -97575.48, -127334.91, -113744.60, 0.000, 0.000, 0.000, 19:25:46.800
67, -6525.01, -6609.95, -6645.13, -6581.76, -60547.10, -97576.18, -127335.63, -113745.30, 0.000, 0.000, 0.000, 19:25:46.800
68, -6522.46, -6607.58, -6642.80, -6579.37, -60544.82, -97573.74, -127333.13, -113742.93, 0.000, 0.000, 0.000, 19:25:46.800
69, -6522.71, -6608.14, -6643.59, -6580.17, -60545.89, -97574.80, -127334.28, -113744.16, 0.000, 0.000, 0.000, 19:25:46.800
70, -6522.37, -6607.98, -6643.43, -6580.26, -60545.98, -97575.09, -127334.66, -113744.70, 0.000, 0.000, 0.000, 19:25:46.800
71, -6524.14, -6609.41, -6644.59, -6581.49, -60546.94, -97576.11, -127335.63, -113745.54, 0.000, 0.000, 0.000, 19:25:46.801
72, -6526.53, -6611.47, -6646.54, -6583.42, -60548.77, -97577.84, -127337.26, -113746.95, 0.000, 0.000, 0.000, 19:25:46.801
73, -6524.97, -6609.97, -6645.08, -6581.96, -60547.43, -97576.36, -127335.80, -113745.56, 0.000, 0.000, 0.000, 19:25:46.801
74, -6520.72, -6606.10, -6641.42, -6578.27, -60544.08, -97572.98, -127332.54, -113742.32, 0.000, 0.000, 0.000, 19:25:46.801
75, -6519.11, -6604.76, -6640.03, -6577.02, -60542.92, -97571.93, -127331.65, -113741.50, 0.038, -0.006, 0.984, 19:25:46.801
76, -6522.22, -6607.58, -6642.51, -6579.48, -60545.22, -97574.34, -127333.97, -113743.87, 0.000, 0.000, 0.000, 19:25:46.801
77, -6526.35, -6611.35, -6646.22, -6583.13, -60548.68, -97577.81, -127337.37, -113747.04, 0.000, 0.000, 0.000, 19:25:46.801
78, -6525.84, -6610.89, -6645.87, -6582.77, -60548.39, -97577.41, -127336.97, -113746.68, 0.000, 0.000, 0.000, 19:25:46.801
79, -6523.11, -6608.61, -6643.77, -6580.78, -60546.70, -97575.69, -127335.27, -113745.19, 0.000, 0.000, 0.000, 19:25:46.802
80, -6521.41, -6607.15, -6642.31, -6579.44, -60545.49, -97574.55, -127334.27, -113744.16, 0.000, 0.000, 0.000, 19:25:46.802
81, -6525.59, -6611.02, -6645.87, -6583.01, -60549.00, -97578.10, -127337.75, -113747.53, 0.000, 0.000, 0.000, 19:25:46.802
82, -6526.64, -6611.78, -6646.51, -6583.53, -60549.27, -97578.39, -127337.98, -113747.71, 0.000, 0.000, 0.000, 19:25:46.802
83, -6523.62, -6608.87, -6643.77, -6580.69, -60546.61, -97575.45, -127335.09, -113744.88, 0.000, 0.000, 0.000, 19:25:46.802
84, -6522.02, -6607.58, -6642.83, -6579.75, -60545.87, -97574.57, -127334.42, -113744.41, 0.000, 0.000, 0.000, 19:25:46.802
85, -6521.90, -6607.56, -6642.92, -6579.88, -60546.05, -97574.99, -127334.95, -113744.96, 0.042, -0.004, 0.984, 19:25:46.802
86, -6524.61, -6609.88, -6644.97, -6581.85, -60547.88, -97577.03, -127336.79, -113746.73, 0.000, 0.000, 0.000, 19:25:46.802
87, -6524.16, -6609.16, -6644.08, -6580.85, -60546.83, -97575.89, -127335.67, -113745.50, 0.000, 0.000, 0.000, 19:25:46.802
88, -6522.28, -6607.33, -6642.47, -6579.19, -60545.33, -97574.16, -127333.99, -113743.76, 0.000, 0.000, 0.000, 19:25:46.803
89, -6521.72, -6607.20, -6642.58, -6579.35, -60545.69, -97574.46, -127334.40, -113744.31, 0.000, 0.000, 0.000, 19:25:46.803
90, -6520.32, -6605.97, -6641.26, -6578.27, -60544.66, -97573.61, -127333.62, -113743.53, 0.000, 0.000, 0.000, 19:25:46.803
91, -6520.03, -6605.34, -6640.39, -6577.36, -60543.48, -97572.60, -127332.56, -113742.41, 0.000, 0.000, 0.000, 19:25:46.803
92, -6519.69, -6604.83, -6639.61, -6576.46, -60542.63, -97571.66, -127331.49, -113741.32, 0.000, 0.000, 0.000, 19:25:46.803
93, -6517.61, -6602.77, -6637.73, -6574.52, -60540.88, -97569.74, -127329.57, -113739.38, 0.000, 0.000, 0.000, 19:25:46.803
94, -6516.11, -6601.59, -6636.93, -6573.76, -60540.28, -97569.09, -127329.21, -113739.04, 0.000, 0.000, 0.000, 19:25:46.803
95, -6518.30, -6604.05, -6639.21, -6576.26, -60542.80, -97571.87, -127331.94, -113741.97, 0.000, 0.000, 0.000, 19:25:46.803
96, -6521.46, -6606.73, -6641.64, -6578.74, -60545.09, -97574.13, -127334.28, -113744.18, 0.038, 0.002, 0.978, 19:25:46.804
97, -6521.37, -6606.37, -6641.17, -6578.14, -60544.46, -97573.38, -127333.62, -113743.42, 0.000, 0.000, 0.000, 19:25:46.804
98, -6520.20, -6605.36, -6640.23, -6577.20, -60543.70, -97572.45, -127332.56, -113742.44, 0.000, 0.000, 0.000, 19:25:46.804
99, -6517.03, -6602.53, -6637.60, -6574.81, -60541.35, -97570.19, -127330.30, -113740.31, 0.000, 0.000, 0.000, 19:25:46.804
100, -6517.17, -6602.75, -6637.77, -6575.08, -60541.80, -97570.75, -127330.98, -113741.07, 0.000, 0.000, 0.000, 19:25:46.804
101, -6518.48, -6603.80, -6638.56, -6575.75, -60542.34, -97571.27, -127331.54, -113741.48, 0.000, 0.000, 0.000, 19:25:46.804
102, -6519.67, -6604.65, -6639.38, -6576.46, -60542.96, -97571.89, -127332.01, -113741.83, 0.000, 0.000, 0.000, 19:25:46.804
103, -6518.93, -6604.00, -6638.96, -6576.02, -60542.56, -97571.33, -127331.38, -113741.30, 0.000, 0.000, 0.000, 19:25:46.804
104, -6518.13, -6603.53, -6638.74, -6575.82, -60542.74, -97571.30, -127331.65, -113741.59, 0.000, 0.000, 0.000, 19:25:46.805
105, -6518.77, -6604.40, -6639.52, -6576.75, -60543.70, -97572.38, -127332.90, -113742.93, 0.000, 0.000, 0.000, 19:25:47.270
106, -6520.83, -6606.17, -6640.95, -6578.14, -60545.00, -97573.77, -127334.17, -113744.16, 0.038, -0.002, 0.982, 19:25:47.270
107, -6520.70, -6605.86, -6640.46, -6577.58, -60544.32, -97573.01, -127333.32, -113743.24, 0.000, 0.000, 0.000, 19:25:47.270
108, -6519.60, -6604.76, -6639.56, -6576.58, -60543.48, -97572.00, -127332.34, -113742.23, 0.000, 0.000, 0.000, 19:25:47.270
109, -6519.31, -6604.74, -6639.72, -6576.80, -60543.99, -97572.52, -127332.92, -113743.02, 0.000, 0.000, 0.000, 19:25:47.271
110, -6520.16, -6605.70, -6640.75, -6578.01, -60545.20, -97573.97, -127334.40, -113744.65, 0.000, 0.000, 0.000, 19:25:47.271
111, -6520.72, -6605.86, -6640.66, -6577.96, -60544.91, -97573.77, -127334.13, -113744.29, 0.000, 0.000, 0.000, 19:25:47.271
112, -6521.57, -6606.50, -6641.17, -6578.48, -60545.38, -97574.01, -127334.38, -113744.38, 0.000, 0.000, 0.000, 19:25:47.271
113, -6521.05, -6606.08, -6640.90, -6578.14, -60545.15, -97573.66, -127334.04, -113743.93, 0.000, 0.000, 0.000, 19:25:47.271
114, -6519.13, -6604.47, -6639.54, -6576.75, -60544.04, -97572.54, -127333.08, -113743.09, 0.000, 0.000, 0.000, 19:25:47.271
115, -6519.76, -6605.25, -6640.32, -6577.72, -60545.00, -97573.68, -127334.33, -113744.38, 0.000, 0.000, 0.000, 19:25:47.271
116, -6524.90, -6609.90, -6644.79, -6582.19, -60549.24, -97577.95, -127338.60, -113748.60, 0.042, -0.004, 0.980, 19:25:47.271
117, -6526.37, -6611.24, -6645.89, -6583.19, -60550.23, -97578.86, -127339.41, -113749.34, 0.000, 0.000, 0.000, 19:25:47.272
118, -6521.84, -6606.84, -6641.53, -6578.79, -60545.93, -97574.57, -127334.89, -113745.03, 0.000, 0.000, 0.000, 19:25:47.272
119, -6519.91, -6605.19, -6640.19, -6577.43, -60544.79, -97573.34, -127333.81, -113744.02, 0.000, 0.000, 0.000, 19:25:47.272
120, -6520.09, -6605.45, -6640.55, -6577.87, -60545.40, -97574.03, -127334.69, -113744.91, 0.000, 0.000, 0.000, 19:25:47.272
121, -6521.43, -6606.62, -6641.40, -6578.74, -60546.05, -97574.62, -127335.36, -113745.50, 0.000, 0.000, 0.000, 19:25:47.272
122, -6521.17, -6606.08, -6640.75, -6578.05, -60545.22, -97573.77, -127334.45, -113744.49, 0.000, 0.000, 0.000, 19:25:47.272
123, -6517.57, -6602.57, -6637.46, -6574.79, -60541.96, -97570.37, -127330.98, -113741.07, 0.000, 0.000, 0.000, 19:25:47.272
124, -6517.59, -6602.84, -6638.09, -6575.41, -60542.85, -97571.33, -127331.98, -113742.23, 0.000, 0.000, 0.000, 19:25:47.272
125, -6520.50, -6605.81, -6641.02, -6578.43, -60546.00, -97574.62, -127335.41, -113745.72, 0.000, 0.000, 0.000, 19:25:47.272
126, -6520.36, -6605.43, -6640.19, -6577.49, -60545.09, -97573.66, -127334.48, -113744.67, 0.044, -0.004, 0.982, 19:25:47.273
127, -6518.75, -6603.62, -6638.36, -6575.44, -60543.03, -97571.48, -127332.27, -113742.30, 0.000, 0.000, 0.000, 19:25:47.273
128, -6517.23, -6602.21, -6637.08, -6574.25, -60541.89, -97570.23, -127331.00, -113741.03, 0.000, 0.000, 0.000, 19:25:47.273
129, -6515.51, -6600.96, -6635.99, -6573.25, -60541.08, -97569.38, -127330.26, -113740.40, 0.000, 0.000, 0.000, 19:25:47.273
130, -6516.14, -6601.79, -6636.79, -6574.07, -60542.00, -97570.55, -127331.42, -113741.79, 0.000, 0.000, 0.000, 19:25:47.273
131, -6518.22, -6603.55, -6638.18, -6575.53, -60543.12, -97571.77, -127332.63, -113742.88, 0.000, 0.000, 0.000, 19:25:47.273
132, -6520.63, -6605.81, -6640.28, -6577.51, -60545.06, -97573.61, -127334.45, -113744.58, 0.000, 0.000, 0.000, 19:25:47.273
133, -6517.17, -6602.53, -6637.10, -6574.25, -60541.98, -97570.28, -127331.18, -113741.36, 0.000, 0.000, 0.000, 19:25:47.273
134, -6518.24, -6603.80, -6638.74, -6575.93, -60543.92, -97572.20, -127333.23, -113743.48, 0.000, 0.000, 0.000, 19:25:47.274
135, -6520.54, -6606.10, -6641.04, -6578.36, -60546.43, -97574.88, -127336.01, -113746.41, 0.000, 0.000, 0.000, 19:25:47.274
136, -6522.33, -6607.53, -6642.09, -6579.44, -60547.39, -97575.84, -127336.95, -113747.17, 0.036, -0.004, 0.978, 19:25:47.274
137, -6524.12, -6609.14, -6643.59, -6580.85, -60548.73, -97577.05, -127338.17, -113748.27, 0.000, 0.000, 0.000, 19:25:47.274
138, -6520.72, -6605.77, -6640.41, -6577.69, -60545.55, -97573.77, -127334.91, -113745.05, 0.000, 0.000, 0.000, 19:25:47.274
139, -6518.91, -6604.45, -6639.32, -6576.69, -60544.70, -97572.91, -127334.13, -113744.38, 0.000, 0.000, 0.000, 19:25:47.274
140, -6516.47, -6602.12, -6637.04, -6574.52, -60542.52, -97570.95, -127332.23, -113742.57, 0.000, 0.000, 0.000, 19:25:47.275
141, -6516.23, -6601.50, -6636.10, -6573.51, -60541.51, -97569.88, -127331.00, -113741.36, 0.000, 0.000, 0.000, 19:25:47.275
142, -6517.59, -6602.64, -6637.10, -6574.50, -60542.40, -97570.62, -127331.78, -113742.10, 0.000, 0.000, 0.000, 19:25:47.275
143, -6518.71, -6603.87, -6638.47, -6575.86, -60543.86, -97571.87, -127333.13, -113743.42, 0.000, 0.000, 0.000, 19:25:47.275
144, -6515.22, -6600.78, -6635.65, -6573.00, -60541.22, -97569.23, -127330.58, -113741.01, 0.000, 0.000, 0.000, 19:25:47.275
145, -6513.16, -6598.77, -6633.77, -6571.21, -60539.45, -97567.71, -127329.03, -113739.53, 0.000, 0.000, 0.000, 19:25:47.275
146, -6514.08, -6599.15, -6634.02, -6571.39, -60539.56, -97567.75, -127329.16, -113739.40, 0.038, -0.006, 0.982, 19:25:47.276
147, -6517.57, -6602.62, -6637.26, -6574.56, -60542.69, -97570.77, -127332.09, -113742.34, 0.000, 0.000, 0.000, 19:25:47.276
148, -6515.24, -6600.38, -6635.12, -6572.46, -60540.68, -97568.73, -127329.93, -113740.29, 0.000, 0.000, 0.000, 19:25:47.276
149, -6512.87, -6598.28, -6633.35, -6570.61, -60539.05, -97567.06, -127328.43, -113738.91, 0.000, 0.000, 0.000, 19:25:47.276
150, -6514.84, -6600.49, -6635.36, -6572.80, -60541.31, -97569.41, -127330.80, -113741.43, 0.000, 0.000, 0.000, 19:25:47.276
151, -6518.91, -6604.16, -6638.71, -6576.15, -60544.48, -97572.67, -127334.02, -113744.54, 0.000, 0.000, 0.000, 19:25:47.276
152, -6517.79, -6602.84, -6637.42, -6574.70, -60543.03, -97571.10, -127332.48, -113742.81, 0.000, 0.000, 0.000, 19:25:47.277
153, -6518.30, -6603.55, -6638.31, -6575.46, -60543.99, -97571.91, -127333.23, -113743.58, 0.000, 0.000, 0.000, 19:25:47.277
154, -6515.80, -6601.34, -6636.41, -6573.60, -60542.40, -97570.30, -127331.70, -113742.13, 0.000, 0.000, 0.000, 19:25:47.277
155, -6514.35, -6599.89, -6635.00, -6572.35, -60540.99, -97569.23, -127330.66, -113741.23, 0.000, 0.000, 0.000, 19:25:47.277
156, -6517.92, -6603.13, -6637.82, -6575.28, -60543.72, -97571.93, -127333.34, -113743.84, 0.038, -0.006, 0.980, 19:25:47.277
157, -6519.49, -6604.43, -6638.89, -6576.31, -60544.82, -97572.91, -127334.30, -113744.56, 0.000, 0.000, 0.000, 19:25:47.277
158, -6517.17, -6602.19, -6636.90, -6574.16, -60542.85, -97570.81, -127332.12, -113742.57, 0.000, 0.000, 0.000, 19:25:47.277
159, -6517.01, -6602.37, -6637.44, -6574.74, -60543.65, -97571.44, -127333.05, -113743.55, 0.000, 0.000, 0.000, 19:25:47.277
160, -6517.72, -6603.20, -6638.20, -6575.61, -60544.53, -97572.54, -127334.17, -113744.78, 0.000, 0.000, 0.000, 19:25:47.278
161, -6518.93, -6604.00, -6638.69, -6576.15, -60544.82, -97572.89, -127334.53, -113744.94, 0.000, 0.000, 0.000, 19:25:47.278
162, -6520.72, -6605.52, -6640.10, -6577.40, -60546.09, -97574.10, -127335.67, -113745.95, 0.000, 0.000, 0.000, 19:25:47.278
163, -6516.70, -6601.63, -6636.48, -6573.80, -60542.54, -97570.39, -127331.96, -113742.23, 0.000, 0.000, 0.000, 19:25:47.278
164, -6512.52, -6597.77, -6633.01, -6570.34, -60539.23, -97567.09, -127328.77, -113739.24, 0.000, 0.000, 0.000, 19:25:47.278
165, -6514.48, -6599.89, -6635.03, -6572.51, -60541.44, -97569.48, -127331.16, -113741.79, 0.000, 0.000, 0.000, 19:25:47.278
166, -6517.48, -6602.62, -6637.35, -6574.72, -60543.68, -97571.66, -127333.26, -113743.80, 0.042, -0.006, 0.982, 19:25:47.278
167, -6520.50, -6605.50, -6640.14, -6577.43, -60546.29, -97574.19, -127335.76, -113746.17, 0.000, 0.000, 0.000, 19:25:47.278
168, -6519.87, -6604.98, -6639.85, -6577.16, -60546.07, -97573.90, -127335.45, -113745.92, 0.000, 0.000, 0.000, 19:25:47.279
169, -6517.90, -6603.29, -6638.47, -6575.91, -60545.04, -97572.71, -127334.40, -113745.09, 0.000, 0.000, 0.000, 19:25:47.279
170, -6517.88, -6603.31, -6638.56, -6576.04, -60545.24, -97573.09, -127334.80, -113745.61, 0.000, 0.000, 0.000, 19:25:47.279
171, -6519.96, -6604.98, -6639.83, -6577.25, -60546.36, -97574.28, -127335.96, -113746.64, 0.000, 0.000, 0.000, 19:25:47.279
172, -6519.09, -6603.96, -6638.74, -6576.02, -60544.93, -97572.73, -127334.51, -113745.09, 0.000, 0.000, 0.000, 19:25:47.279
173, -6519.11, -6604.14, -6639.07, -6576.33, -60545.38, -97573.01, -127334.77, -113745.38, 0.000, 0.000, 0.000, 19:25:47.279
174, -6518.35, -6603.67, -6638.89, -6576.24, -60545.64, -97573.16, -127335.02, -113745.77, 0.000, 0.000, 0.000, 19:25:47.279
175, -6518.35, -6603.80, -6639.00, -6576.44, -60545.75, -97573.52, -127335.49, -113746.28, 0.000, 0.000, 0.000, 19:25:47.279
176, -6518.66, -6603.89, -6638.65, -6576.08, -60545.15, -97573.07, -127335.00, -113745.61, 0.042, 0.000, 0.980, 19:25:47.280
177, -6519.69, -6604.63, -6639.50, -6576.73, -60545.87, -97573.54, -127335.41, -113745.97, 0.000, 0.000, 0.000, 19:25:47.280
178, -6515.78, -6600.83, -6635.81, -6573.16, -60542.34, -97569.83, -127331.71, -113742.39, 0.000, 0.000, 0.000, 19:25:47.280
179, -6513.16, -6598.57, -6633.80, -6571.19, -60540.68, -97568.09, -127330.15, -113740.96, 0.000, 0.000, 0.000, 19:25:47.280
180, -6513.95, -6599.53, -6634.58, -6572.11, -60541.53, -97569.27, -127331.23, -113742.15, 0.000, 0.000, 0.000, 19:25:47.280
181, -6515.87, -6601.07, -6635.76, -6573.18, -60542.52, -97570.19, -127332.16, -113742.95, 0.000, 0.000, 0.000, 19:25:47.280
182, -6513.66, -6598.64, -6633.30, -6570.61, -60539.96, -97567.53, -127329.52, -113740.06, 0.000, 0.000, 0.000, 19:25:47.280
183, -6514.57, -6599.73, -6634.65, -6571.84, -60541.29, -97568.85, -127330.82, -113741.34, 0.000, 0.000, 0.000, 19:25:47.280
184, -6514.39, -6599.89, -6634.98, -6572.24, -60541.98, -97569.52, -127331.60, -113742.30, 0.000, 0.000, 0.000, 19:25:47.281
185, -6513.19, -6598.68, -6633.64, -6571.21, -60540.88, -97568.53, -127330.73, -113741.59, 0.000, 0.000, 0.000, 19:25:47.281
186, -6518.13, -6603.20, -6637.95, -6575.46, -60544.97, -97572.67, -127334.77, -113745.50, 0.000, 0.000, 0.000, 19:25:47.281
187, -6520.72, -6605.63, -6640.39, -6577.72, -60547.25, -97574.84, -127336.74, -113747.51, 0.036, -0.002, 0.976, 19:25:47.281
188, -6519.47, -6604.63, -6639.56, -6576.91, -60546.49, -97573.84, -127335.80, -113746.59, 0.000, 0.000, 0.000, 19:25:47.281
189, -6515.18, -6600.67, -6635.90, -6573.29, -60543.09, -97570.50, -127332.66, -113743.46, 0.000, 0.000, 0.000, 19:25:47.281
190, -6517.03, -6602.53, -6637.60, -6575.10, -60544.82, -97572.54, -127334.66, -113745.63, 0.000, 0.000, 0.000, 19:25:47.281
191, -6520.03, -6604.94, -6639.76, -6577.27, -60546.83, -97574.62, -127336.70, -113747.45, 0.000, 0.000, 0.000, 19:25:47.281
192, -6521.37, -6606.04, -6640.86, -6578.23, -60547.79, -97575.40, -127337.46, -113748.18, 0.000, 0.000, 0.000, 19:25:47.282
193, -6519.38, -6604.27, -6639.27, -6576.60, -60546.31, -97573.72, -127335.76, -113746.62, 0.000, 0.000, 0.000, 19:25:47.282
194, -6516.34, -6601.61, -6636.88, -6574.23, -60544.19, -97571.62, -127333.84, -113744.65, 0.000, 0.000, 0.000, 19:25:47.282
195, -6517.84, -6603.24, -6638.29, -6575.73, -60545.82, -97573.36, -127335.63, -113746.55, 0.000, 0.000, 0.000, 19:25:47.282
196, -6520.70, -6605.63, -6640.55, -6577.92, -60547.86, -97575.42, -127337.59, -113748.36, 0.000, 0.000, 0.000, 19:25:47.282
197, -6520.14, -6604.65, -6639.56, -6576.80, -60546.71, -97574.16, -127336.30, -113747.06, 0.042, -0.002, 0.974, 19:25:47.282
198, -6516.56, -6601.36, -6636.48, -6573.67, -60543.59, -97570.86, -127333.01, -113743.89, 0.000, 0.000, 0.000, 19:25:47.282
199, -6514.13, -6599.42, -6634.74, -6572.04, -60542.09, -97569.43, -127331.71, -113742.81, 0.000, 0.000, 0.000, 19:25:47.282
200, -6515.82, -6601.12, -6636.28, -6573.71, -60543.92, -97571.38, -127333.73, -113744.78, 0.000, 0.000, 0.000, 19:25:47.283
201, -6517.23, -6602.06, -6636.88, -6574.34, -60544.37, -97571.80, -127334.13, -113745.03, 0.000, 0.000, 0.000, 19:25:47.283
202, -6516.00, -6600.69, -6635.50, -6572.84, -60542.78, -97570.10, -127332.41, -113743.20, 0.000, 0.000, 0.000, 19:25:47.283
203, -6513.37, -6598.28, -6633.28, -6570.56, -60540.55, -97567.91, -127330.15, -113741.01, 0.000, 0.000, 0.000, 19:25:47.283
204, -6510.73, -6595.98, -6631.32, -6568.60, -60538.78, -97566.12, -127328.54, -113739.58, 0.000, 0.000, 0.000, 19:25:47.283
205, -6514.44, -6599.62, -6634.87, -6572.17, -60542.47, -97569.95, -127332.45, -113743.53, 0.000, 0.000, 0.000, 19:25:47.283
206, -6518.44, -6603.31, -6638.18, -6575.44, -60545.71, -97573.16, -127335.54, -113746.44, 0.000, 0.000, 0.000, 19:25:47.283
207, -6517.03, -6601.74, -6636.48, -6573.78, -60543.86, -97571.28, -127333.66, -113744.41, 0.038, 0.004, 0.974, 19:25:47.283
208, -6512.74, -6597.70, -6632.63, -6569.89, -60540.12, -97567.38, -127329.77, -113740.54, 0.000, 0.000, 0.000, 19:25:47.284
209, -6510.55, -6595.93, -6631.09, -6568.35, -60538.87, -97566.01, -127328.61, -113739.55, 0.000, 0.000, 0.000, 19:25:47.284
210, -6511.09, -6596.47, -6631.49, -6568.89, -60539.50, -97566.75, -127329.50, -113740.52, 0.000, 0.000, 0.000, 19:25:47.284
211, -6514.68, -6599.78, -6634.56, -6571.84, -60542.36, -97569.63, -127332.30, -113743.15, 0.000, 0.000, 0.000, 19:25:47.284
212, -6514.59, -6599.60, -6634.18, -6571.44, -60541.84, -97569.07, -127331.70, -113742.48, 0.000, 0.000, 0.000, 19:25:47.284
213, -6513.77, -6598.82, -6633.62, -6570.83, -60541.29, -97568.47, -127331.00, -113741.92, 0.000, 0.000, 0.000, 19:25:47.284
214, -6514.73, -6600.09, -6635.14, -6572.51, -60543.16, -97570.37, -127332.88, -113744.09, 0.000, 0.000, 0.000, 19:25:47.284
215, -6517.75, -6603.17, -6638.00, -6575.46, -60546.14, -97573.61, -127336.01, -113747.30, 0.000, 0.000, 0.000, 19:25:47.284
216, -6519.87, -6604.78, -6639.45, -6576.71, -60547.36, -97574.73, -127337.15, -113748.34, 0.000, 0.000, 0.000, 19:25:47.285
217, -6518.42, -6603.24, -6637.91, -6575.12, -60545.64, -97572.85, -127335.27, -113746.48, 0.042, 0.000, 0.978, 19:25:47.285
218, -6517.08, -6601.97, -6636.84, -6574.09, -60544.59, -97571.73, -127334.22, -113745.41, 0.000, 0.000, 0.000, 19:25:47.285
219, -6514.91, -6600.22, -6635.20, -6572.57, -60543.41, -97570.48, -127333.16, -113744.29, 0.000, 0.000, 0.000, 19:25:47.285
220, -6516.00, -6601.39, -6636.23, -6573.67, -60544.53, -97571.75, -127334.45, -113745.66, 0.000, 0.000, 0.000, 19:25:47.285
221, -6520.29, -6605.23, -6639.90, -6577.20, -60547.83, -97575.09, -127337.80, -113748.90, 0.000, 0.000, 0.000, 19:25:47.285
222, -6520.23, -6605.01, -6639.63, -6576.87, -60547.43, -97574.66, -127337.30, -113748.31, 0.000, 0.000, 0.000, 19:25:47.285
223, -6518.91, -6603.85, -6638.67, -6575.88, -60546.61, -97573.52, -127336.30, -113747.40, 0.000, 0.000, 0.000, 19:25:47.285
224, -6515.18, -6600.43, -6635.50, -6572.80, -60543.70, -97570.66, -127333.46, -113744.76, 0.000, 0.000, 0.000, 19:25:47.285
225, -6515.04, -6600.38, -6635.23, -6572.78, -60543.63, -97570.88, -127333.66, -113745.05, 0.000, 0.000, 0.000, 19:25:47.753
226, -6517.48, -6602.44, -6637.04, -6574.41, -60545.18, -97572.47, -127335.18, -113746.37, 0.000, 0.000, 0.000, 19:25:47.753
227, -6517.92, -6602.71, -6637.28, -6574.52, -60545.29, -97572.40, -127335.07, -113746.26, 0.040, -0.004, 0.982, 19:25:47.753
228, -6515.94, -6600.94, -6635.67, -6572.91, -60543.88, -97570.77, -127333.46, -113744.78, 0.000, 0.000, 0.000, 19:25:47.753
229, -6511.67, -6596.98, -6631.92, -6569.31, -60540.43, -97567.38, -127330.15, -113741.50, 0.000, 0.000, 0.000, 19:25:47.753
230, -6512.31, -6597.65, -6632.50, -6569.98, -60541.02, -97568.24, -127331.05, -113742.50, 0.000, 0.000, 0.000, 19:25:47.753
231, -6513.66, -6598.59, -6633.19, -6570.54, -60541.38, -97568.58, -127331.49, -113742.75, 0.000, 0.000, 0.000, 19:25:47.753
232, -6515.09, -6599.78, -6634.42, -6571.70, -60542.45, -97569.48, -127332.45, -113743.53, 0.000, 0.000, 0.000, 19:25:47.753
233, -6514.17, -6599.17, -6633.95, -6571.23, -60542.13, -97569.02, -127331.89, -113743.13, 0.000, 0.000, 0.000, 19:25:47.754
234, -6513.23, -6598.57, -6633.62, -6570.92, -60542.16, -97569.01, -127332.07, -113743.38, 0.000, 0.000, 0.000, 19:25:47.754
235, -6513.95, -6599.33, -6634.20, -6571.68, -60542.87, -97569.88, -127333.01, -113744.42, 0.000, 0.000, 0.000, 19:25:47.754
236, -6517.48, -6602.44, -6637.04, -6574.50, -60545.55, -97572.60, -127335.58, -113746.84, 0.000, 0.000, 0.000, 19:25:47.754
237, -6517.46, -6602.08, -6636.64, -6573.98, -60545.06, -97571.93, -127334.89, -113746.15, 0.036, -0.006, 0.980, 19:25:47.754
238, -6516.40, -6601.19, -6636.01, -6573.22, -60544.44, -97571.30, -127334.13, -113745.66, 0.000, 0.000, 0.000, 19:25:47.754
239, -6514.01, -6599.31, -6634.27, -6571.61, -60542.98, -97569.92, -127332.99, -113744.52, 0.000, 0.000, 0.000, 19:25:47.754
240, -6511.80, -6597.23, -6632.12, -6569.56, -60540.86, -97567.89, -127331.09, -113742.57, 0.000, 0.000, 0.000, 19:25:47.754
241, -6511.29, -6596.22, -6630.94, -6568.37, -60539.45, -97566.41, -127329.59, -113740.89, 0.000, 0.000, 0.000, 19:25:47.755
242, -6512.76, -6597.47, -6632.12, -6569.45, -60540.64, -97567.53, -127330.55, -113741.85, 0.000, 0.000, 0.000, 19:25:47.755
243, -6513.14, -6597.92, -6632.79, -6570.03, -60541.38, -97568.18, -127331.16, -113742.59, 0.000, 0.000, 0.000, 19:25:47.755
244, -6512.76, -6597.88, -6632.97, -6570.38, -60541.80, -97568.65, -127331.80, -113743.30, 0.000, 0.000, 0.000, 19:25:47.755
245, -6510.33, -6595.46, -6630.51, -6567.88, -60539.36, -97566.45, -127329.62, -113741.12, 0.000, 0.000, 0.000, 19:25:47.755
246, -6512.74, -6597.59, -6632.34, -6569.54, -60540.86, -97568.02, -127331.09, -113742.48, 0.000, 0.000, 0.000, 19:25:47.755
247, -6514.19, -6598.82, -6633.53, -6570.65, -60541.91, -97568.94, -127331.87, -113743.42, 0.036, -0.006, 0.980, 19:25:47.755
248, -6513.68, -6598.48, -6633.37, -6570.56, -60541.87, -97568.73, -127331.76, -113743.33, 0.000, 0.000, 0.000, 19:25:47.756
249, -6510.46, -6595.57, -6630.76, -6568.02, -60539.65, -97566.61, -127329.70, -113741.30, 0.000, 0.000, 0.000, 19:25:47.756
250, -6509.99, -6595.19, -6630.24, -6567.61, -60539.23, -97566.30, -127329.55, -113741.16, 0.000, 0.000, 0.000, 19:25:47.756
251, -6511.44, -6596.27, -6631.05, -6568.28, -60539.79, -97566.77, -127330.10, -113741.48, 0.000, 0.000, 0.000, 19:25:47.756
252, -6513.43, -6597.97, -6632.70, -6569.92, -60541.38, -97568.22, -127331.45, -113742.91, 0.000, 0.000, 0.000, 19:25:47.756
253, -6511.53, -6596.20, -6631.14, -6568.33, -60540.01, -97566.63, -127329.81, -113741.41, 0.000, 0.000, 0.000, 19:25:47.756
254, -6508.51, -6593.61, -6628.72, -6565.89, -60537.86, -97564.55, -127327.85, -113739.48, 0.000, 0.000, 0.000, 19:25:47.756
255, -6509.03, -6594.23, -6629.21, -6566.45, -60538.38, -97565.25, -127328.56, -113740.24, 0.000, 0.000, 0.000, 19:25:47.756
0, -6511.91, -6596.71, -6631.47, -6568.73, -60540.41, -97567.30, -127330.55, -113742.15, 0.000, 0.000, 0.000, 19:25:47.757
1, -6514.64, -6599.29, -6633.89, -6571.17, -60542.85, -97569.48, -127332.72, -113744.38, 0.036, -0.004, 0.982, 19:25:47.757
2, -6512.23, -6596.94, -6631.94, -6569.11, -60541.02, -97567.41, -127330.77, -113742.30, 0.000, 0.000, 0.000, 19:25:47.757
3, -6508.63, -6593.72, -6628.90, -6566.29, -60538.29, -97564.83, -127328.34, -113740.02, 0.000, 0.000, 0.000, 19:25:47.757
4, -6508.00, -6593.09, -6628.10, -6565.65, -60537.62, -97564.34, -127327.96, -113739.58, 0.000, 0.000, 0.000, 19:25:47.757
5, -6511.20, -6595.87, -6630.58, -6567.99, -60539.81, -97566.61, -127330.09, -113741.67, 0.000, 0.000, 0.000, 19:25:47.757
6, -6514.62, -6599.06, -6633.82, -6571.06, -60542.96, -97569.63, -127333.03, -113744.52, 0.000, 0.000, 0.000, 19:25:47.757
7, -6513.75, -6598.37, -6633.39, -6570.56, -60542.56, -97569.14, -127332.54, -113744.05, 0.000, 0.000, 0.000, 19:25:47.757
8, -6510.37, -6595.37, -6630.58, -6567.88, -60540.05, -97566.63, -127330.22, -113741.90, 0.000, 0.000, 0.000, 19:25:47.758
9, -6509.74, -6594.77, -6629.84, -6567.28, -60539.45, -97566.12, -127329.75, -113741.45, 0.000, 0.000, 0.000, 19:25:47.758
10, -6510.88, -6595.55, -6630.24, -6567.64, -60539.72, -97566.28, -127329.99, -113741.59, 0.000, 0.000, 0.000, 19:25:47.758
11, -6512.09, -6596.65, -6631.43, -6568.60, -60540.64, -97567.20, -127330.80, -113742.21, 0.040, -0.004, 0.980, 19:25:47.758
12, -6513.90, -6598.68, -6633.64, -6570.72, -60542.96, -97569.43, -127333.01, -113744.42, 0.000, 0.000, 0.000, 19:25:47.758
13, -6512.34, -6597.45, -6632.63, -6569.83, -60542.31, -97568.63, -127332.38, -113744.09, 0.000, 0.000, 0.000, 19:25:47.758
14, -6513.32, -6598.50, -6633.44, -6570.85, -60543.25, -97569.74, -127333.46, -113745.27, 0.000, 0.000, 0.000, 19:25:47.758
15, -6514.35, -6599.11, -6633.77, -6571.01, -60543.32, -97569.81, -127333.55, -113745.14, 0.000, 0.000, 0.000, 19:25:47.758
16, -6513.10, -6597.77, -6632.28, -6569.58, -60541.71, -97568.16, -127331.89, -113743.40, 0.000, 0.000, 0.000, 19:25:47.759
17, -6512.47, -6597.25, -6632.12, -6569.33, -60541.62, -97568.00, -127331.71, -113743.40, 0.000, 0.000, 0.000, 19:25:47.759
18, -6510.12, -6595.31, -6630.35, -6567.66, -60540.19, -97566.52, -127330.33, -113742.15, 0.000, 0.000, 0.000, 19:25:47.759
19, -6511.00, -6596.11, -6631.14, -6568.33, -60540.95, -97567.46, -127331.27, -113743.20, 0.000, 0.000, 0.000, 19:25:47.759
20, -6513.75, -6598.46, -6633.24, -6570.36, -60542.78, -97569.34, -127333.01, -113744.85, 0.000, 0.000, 0.000, 19:25:47.759
21, -6514.73, -6599.29, -6634.09, -6571.12, -60543.54, -97569.95, -127333.64, -113745.32, 0.000, 0.000, 0.000, 19:25:47.759
22, -6512.60, -6597.47, -6632.34, -6569.38, -60541.91, -97568.27, -127332.01, -113743.69, 0.036, -0.002, 0.978, 19:25:47.760
23, -6508.58, -6593.67, -6628.97, -6565.96, -60538.74, -97565.09, -127328.95, -113740.80, 0.000, 0.000, 0.000, 19:25:47.760
24, -6510.64, -6595.64, -6630.80, -6567.93, -60540.66, -97567.10, -127331.00, -113742.97, 0.000, 0.000, 0.000, 19:25:47.760
25, -6512.20, -6596.89, -6631.70, -6568.80, -60541.39, -97567.80, -127331.60, -113743.51, 0.000, 0.000, 0.000, 19:25:47.761
26, -6512.20, -6596.76, -6631.43, -6568.64, -60541.17, -97567.44, -127331.27, -113743.02, 0.000, 0.000, 0.000, 19:25:47.761
27, -6510.86, -6595.55, -6630.58, -6567.66, -60540.32, -97566.57, -127330.44, -113742.13, 0.000, 0.000, 0.000, 19:25:47.761
28, -6509.97, -6594.86, -6630.29, -6567.32, -60540.19, -97566.48, -127330.55, -113742.37, 0.000, 0.000, 0.000, 19:25:47.761
29, -6512.96, -6597.94, -6633.08, -6570.23, -60543.09, -97569.54, -127333.52, -113745.54, 0.000, 0.000, 0.000, 19:25:47.762
30, -6515.58, -6600.16, -6635.03, -6572.15, -60544.73, -97571.17, -127335.09, -113746.95, 0.000, 0.000, 0.000, 19:25:47.762
31, -6515.78, -6600.22, -6635.05, -6572.02, -60544.59, -97570.88, -127334.80, -113746.70, 0.000, 0.000, 0.000, 19:25:47.762
32, -6512.09, -6596.76, -6631.81, -6568.77, -60541.55, -97567.77, -127331.70, -113743.58, 0.036, 0.000, 0.984, 19:25:47.762
33, -6508.85, -6593.85, -6629.21, -6566.29, -60539.16, -97565.45, -127329.55, -113741.48, 0.000, 0.000, 0.000, 19:25:47.762
34, -6509.65, -6594.37, -6629.64, -6566.79, -60539.65, -97566.12, -127330.20, -113742.23, 0.000, 0.000, 0.000, 19:25:47.762
35, -6511.67, -6596.00, -6631.00, -6568.08, -60540.82, -97567.17, -127331.27, -113743.13, 0.000, 0.000, 0.000, 19:25:47.762
36, -6512.14, -6596.40, -6631.36, -6568.44, -60541.08, -97567.41, -127331.42, -113743.28, 0.000, 0.000, 0.000, 19:25:47.762
37, -6512.09, -6596.60, -6631.81, -6568.66, -60541.62, -97567.77, -127331.87, -113743.84, 0.000, 0.000, 0.000, 19:25:47.763
38, -6512.05, -6596.98, -6632.39, -6569.24, -60542.49, -97568.65, -127332.88, -113744.96, 0.000, 0.000, 0.000, 19:25:47.763
39, -6509.63, -6594.46, -6629.64, -6566.70, -60539.90, -97566.26, -127330.51, -113742.48, 0.000, 0.000, 0.000, 19:25:47.763
40, -6512.90, -6597.36, -6632.37, -6569.29, -60542.29, -97568.52, -127332.81, -113744.67, 0.000, 0.000, 0.000, 19:25:47.763
41, -6512.60, -6596.98, -6631.99, -6568.82, -60541.87, -97567.89, -127332.12, -113744.05, 0.000, 0.000, 0.000, 19:25:47.763
42, -6511.15, -6595.75, -6630.91, -6567.84, -60540.95, -97566.91, -127331.23, -113743.09, 0.036, -0.002, 0.982, 19:25:47.763
43, -6510.59, -6595.42, -6630.76, -6567.90, -60541.13, -97567.15, -127331.55, -113743.58, 0.000, 0.000, 0.000, 19:25:47.763
44, -6512.31, -6597.09, -6632.23, -6569.56, -60542.65, -97568.89, -127333.28, -113745.25, 0.000, 0.000, 0.000, 19:25:47.764
45, -6515.58, -6599.91, -6634.80, -6571.88, -60545.00, -97571.22, -127335.56, -113747.35, 0.000, 0.000, 0.000, 19:25:47.764
46, -6514.80, -6599.04, -6633.84, -6570.81, -60543.99, -97570.10, -127334.40, -113746.26, 0.000, 0.000, 0.000, 19:25:47.764
47, -6511.69, -6596.07, -6631.23, -6568.19, -60541.42, -97567.46, -127331.71, -113743.66, 0.000, 0.000, 0.000, 19:25:47.764
48, -6509.32, -6593.94, -6629.46, -6566.52, -60539.92, -97565.95, -127330.33, -113742.44, 0.000, 0.000, 0.000, 19:25:47.764
49, -6510.35, -6595.04, -6630.31, -6567.59, -60540.86, -97566.95, -127331.55, -113743.62, 0.000, 0.000, 0.000, 19:25:47.764
50, -6510.50, -6594.88, -6629.82, -6567.10, -60540.23, -97566.28, -127330.82, -113742.68, 0.000, 0.000, 0.000, 19:25:47.764
51, -6510.41, -6594.81, -6629.68, -6566.79, -60539.88, -97565.90, -127330.40, -113742.19, 0.000, 0.000, 0.000, 19:25:47.764
52, -6510.75, -6595.37, -6630.44, -6567.41, -60540.70, -97566.63, -127331.16, -113743.17, 0.042, -0.002, 0.984, 19:25:47.765
53, -6510.62, -6595.53, -6630.76, -6567.95, -60541.39, -97567.38, -127331.87, -113744.13, 0.000, 0.000, 0.000, 19:25:47.765
54, -6512.00, -6596.94, -6631.90, -6569.09, -60542.54, -97568.70, -127333.21, -113745.38, 0.000, 0.000, 0.000, 19:25:47.765
55, -6513.72, -6598.28, -6632.92, -6570.00, -60543.36, -97569.41, -127333.91, -113745.92, 0.000, 0.000, 0.000, 19:25:47.765
56, -6513.54, -6597.90, -6632.66, -6569.58, -60543.03, -97568.91, -127333.44, -113745.37, 0.000, 0.000, 0.000, 19:25:47.765
57, -6512.34, -6596.96, -6632.01, -6568.84, -60542.45, -97568.24, -127332.79, -113744.94, 0.000, 0.000, 0.000, 19:25:47.765
58, -6512.78, -6597.72, -6632.95, -6570.03, -60543.72, -97569.63, -127334.35, -113746.55, 0.000, 0.000, 0.000, 19:25:47.765
59, -6514.21, -6599.08, -6634.22, -6571.23, -60544.88, -97571.04, -127335.65, -113747.89, 0.000, 0.000, 0.000, 19:25:47.765
60, -6514.89, -6599.31, -6634.15, -6571.14, -60544.64, -97570.63, -127335.34, -113747.33, 0.000, 0.000, 0.000, 19:25:47.766
61, -6511.62, -6595.91, -6630.76, -6567.64, -60541.17, -97567.02, -127331.65, -113743.64, 0.000, 0.000, 0.000, 19:25:47.766
62, -6508.31, -6592.85, -6627.87, -6564.75, -60538.51, -97564.29, -127328.83, -113740.96, 0.038, -0.002, 0.980, 19:25:47.766
63, -6508.27, -6593.07, -6628.45, -6565.40, -60539.36, -97565.18, -127329.81, -113742.13, 0.000, 0.000, 0.000, 19:25:47.766
64, -6509.74, -6594.52, -6629.62, -6566.83, -60540.59, -97566.52, -127331.24, -113743.58, 0.000, 0.000, 0.000, 19:25:47.766
65, -6510.24, -6594.68, -6629.42, -6566.63, -60540.14, -97566.08, -127330.73, -113742.91, 0.000, 0.000, 0.000, 19:25:47.766
66, -6510.71, -6595.11, -6629.88, -6566.99, -60540.46, -97566.28, -127330.89, -113742.99, 0.000, 0.000, 0.000, 19:25:47.766
67, -6512.56, -6597.14, -6632.23, -6569.22, -60542.96, -97568.65, -127333.32, -113745.59, 0.000, 0.000, 0.000, 19:25:47.766
68, -6511.98, -6596.87, -6632.23, -6569.16, -60543.12, -97568.89, -127333.73, -113746.21, 0.000, 0.000, 0.000, 19:25:47.767
69, -6510.15, -6594.95, -6630.00, -6567.01, -60540.95, -97566.84, -127331.76, -113744.11, 0.000, 0.000, 0.000, 19:25:47.767
70, -6513.39, -6597.70, -6632.59, -6569.60, -60543.32, -97569.09, -127333.93, -113746.10, 0.000, 0.000, 0.000, 19:25:47.767
71, -6513.79, -6598.06, -6632.97, -6569.87, -60543.54, -97569.20, -127334.13, -113746.21, 0.000, 0.000, 0.000, 19:25:47.767
72, -6512.29, -6596.87, -6632.01, -6568.95, -60542.76, -97568.36, -127333.26, -113745.45, 0.036, -0.002, 0.982, 19:25:47.767
73, -6509.59, -6594.46, -6629.91, -6566.92, -60540.97, -97566.50, -127331.52, -113743.95, 0.000, 0.000, 0.000, 19:25:47.767
74, -6510.97, -6595.75, -6630.91, -6568.02, -60542.02, -97567.66, -127332.74, -113745.14, 0.000, 0.000, 0.000, 19:25:47.767
75, -6511.35, -6595.69, -6630.60, -6567.59, -60541.53, -97567.13, -127332.09, -113744.31, 0.000, 0.000, 0.000, 19:25:47.767
76, -6509.77, -6593.97, -6628.95, -6565.85, -60539.74, -97565.23, -127330.15, -113742.39, 0.000, 0.000, 0.000, 19:25:47.768
77, -6508.78, -6593.27, -6628.43, -6565.40, -60539.34, -97564.89, -127329.81, -113742.01, 0.000, 0.000, 0.000, 19:25:47.768
78, -6509.63, -6594.44, -6629.77, -6566.81, -60540.95, -97566.68, -127331.71, -113744.02, 0.000, 0.000, 0.000, 19:25:47.768
79, -6510.79, -6595.53, -6630.58, -6567.77, -60541.82, -97567.48, -127332.56, -113745.05, 0.000, 0.000, 0.000, 19:25:47.768
80, -6511.02, -6595.28, -6630.22, -6567.21, -60541.08, -97566.66, -127331.67, -113744.02, 0.000, 0.000, 0.000, 19:25:47.768
81, -6510.93, -6595.08, -6630.13, -6567.08, -60540.95, -97566.50, -127331.42, -113743.71, 0.000, 0.000, 0.000, 19:25:47.768
82, -6510.37, -6594.75, -6629.95, -6566.85, -60541.04, -97566.45, -127331.49, -113743.91, 0.040, -0.002, 0.982, 19:25:47.768
83, -6510.48, -6595.15, -6630.47, -6567.59, -60541.80, -97567.40, -127332.56, -113745.14, 0.000, 0.000, 0.000, 19:25:47.768
84, -6509.32, -6594.01, -6629.06, -6566.36, -60540.35, -97566.01, -127331.18, -113743.76, 0.000, 0.000, 0.000, 19:25:47.769
85, -6509.68, -6594.01, -6628.95, -6566.05, -60539.96, -97565.43, -127330.53, -113742.86, 0.000, 0.000, 0.000, 19:25:47.769
86, -6511.73, -6596.04, -6630.96, -6567.95, -60541.91, -97567.40, -127332.34, -113744.70, 0.000, 0.000, 0.000, 19:25:47.769
87, -6511.60, -6596.11, -6631.27, -6568.31, -60542.47, -97567.87, -127333.01, -113745.43, 0.000, 0.000, 0.000, 19:25:47.769
88, -6509.25, -6593.97, -6629.26, -6566.32, -60540.68, -97566.19, -127331.54, -113744.02, 0.000, 0.000, 0.000, 19:25:47.769
89, -6508.74, -6593.38, -6628.52, -6565.65, -60539.88, -97565.45, -127330.64, -113743.20, 0.000, 0.000, 0.000, 19:25:47.769
90, -6511.60, -6595.93, -6630.89, -6567.93, -60541.96, -97567.40, -127332.54, -113744.91, 0.000, 0.000, 0.000, 19:25:48.234
91, -6512.90, -6597.25, -6632.19, -6569.11, -60543.25, -97568.47, -127333.70, -113746.05, 0.000, 0.000, 0.000, 19:25:48.234
92, -6512.09, -6596.60, -6631.83, -6568.60, -60543.07, -97568.24, -127333.62, -113746.13, 0.038, 0.000, 0.986, 19:25:48.234
93, -6511.04, -6595.80, -6631.18, -6568.17, -60542.74, -97568.02, -127333.46, -113746.05, 0.000, 0.000, 0.000, 19:25:48.234
94, -6512.11, -6596.71, -6631.78, -6568.98, -60543.36, -97568.73, -127334.06, -113746.68, 0.000, 0.000, 0.000, 19:25:48.234
95, -6514.73, -6598.95, -6633.86, -6570.83, -60545.13, -97570.41, -127335.70, -113748.07, 0.000, 0.000, 0.000, 19:25:48.234
96, -6514.28, -6598.55, -6633.48, -6570.34, -60544.59, -97569.92, -127335.13, -113747.48, 0.000, 0.000, 0.000, 19:25:48.234
97, -6512.90, -6597.50, -6632.68, -6569.58, -60544.04, -97569.30, -127334.62, -113747.11, 0.000, 0.000, 0.000, 19:25:48.235
98, -6511.38, -6596.40, -6631.54, -6568.62, -60543.27, -97568.58, -127334.13, -113746.64, 0.000, 0.000, 0.000, 19:25:48.235
99, -6512.05, -6596.85, -6631.96, -6569.00, -60543.63, -97568.91, -127334.40, -113746.88, 0.000, 0.000, 0.000, 19:25:48.235
100, -6512.29, -6596.65, -6631.56, -6568.55, -60542.98, -97568.20, -127333.55, -113745.92, 0.000, 0.000, 0.000, 19:25:48.235
101, -6511.82, -6596.11, -6631.14, -6567.93, -60542.43, -97567.57, -127332.95, -113745.27, 0.000, 0.000, 0.000, 19:25:48.235
102, -6512.09, -6596.69, -6631.87, -6568.77, -60543.32, -97568.42, -127333.99, -113746.46, 0.044, -0.002, 0.990, 19:25:48.235
103, -6511.00, -6595.89, -6631.23, -6568.22, -60542.89, -97568.20, -127333.88, -113746.34, 0.000, 0.000, 0.000, 19:25:48.235
104, -6510.48, -6595.26, -6630.40, -6567.48, -60542.04, -97567.40, -127332.99, -113745.43, 0.000, 0.000, 0.000, 19:25:48.236
105, -6511.42, -6595.78, -6630.78, -6567.61, -60542.13, -97567.28, -127332.70, -113745.16, 0.000, 0.000, 0.000, 19:25:48.236
106, -6512.99, -6597.39, -6632.32, -6569.20, -60543.63, -97568.71, -127334.22, -113746.66, 0.000, 0.000, 0.000, 19:25:48.236
107, -6512.09, -6596.71, -6631.87, -6568.84, -60543.34, -97568.58, -127334.20, -113746.73, 0.000, 0.000, 0.000, 19:25:48.236
108, -6511.20, -6596.04, -6631.34, -6568.44, -60543.14, -97568.31, -127334.22, -113746.73, 0.000, 0.000, 0.000, 19:25:48.236
109, -6511.76, -6596.47, -6631.54, -6568.64, -60543.30, -97568.36, -127334.11, -113746.70, 0.000, 0.000, 0.000, 19:25:48.236
110, -6512.00, -6596.49, -6631.36, -6568.28, -60542.87, -97567.82, -127333.39, -113745.90, 0.000, 0.000, 0.000, 19:25:48.236
111, -6513.90, -6598.46, -6633.30, -6570.23, -60544.88, -97569.72, -127335.23, -113747.76, 0.000, 0.000, 0.000, 19:25:48.236
112, -6512.96, -6597.54, -6632.68, -6569.62, -60544.32, -97569.25, -127335.00, -113747.63, 0.000, 0.000, 0.000, 19:25:48.237
113, -6511.40, -6596.13, -6631.47, -6568.55, -60543.39, -97568.40, -127334.40, -113747.02, 0.046, -0.002, 0.986, 19:25:48.237
114, -6512.27, -6596.83, -6631.94, -6569.11, -60543.74, -97568.91, -127334.62, -113747.33, 0.000, 0.000, 0.000, 19:25:48.237
115, -6512.99, -6597.36, -6632.28, -6569.29, -60543.86, -97568.76, -127334.28, -113746.99, 0.000, 0.000, 0.000, 19:25:48.237
116, -6512.99, -6597.32, -6632.25, -6569.20, -60543.92, -97568.55, -127334.22, -113746.84, 0.000, 0.000, 0.000, 19:25:48.237
117, -6512.16, -6596.71, -6631.81, -6568.80, -60543.68, -97568.52, -127334.35, -113747.04, 0.000, 0.000, 0.000, 19:25:48.237
118, -6513.05, -6597.83, -6633.28, -6570.23, -60545.22, -97570.26, -127336.32, -113748.96, 0.000, 0.000, 0.000, 19:25:48.237
119, -6511.98, -6596.69, -6631.96, -6569.00, -60543.77, -97568.63, -127334.62, -113747.38, 0.000, 0.000, 0.000, 19:25:48.237
120, -6512.11, -6596.51, -6631.56, -6568.44, -60543.18, -97567.84, -127333.66, -113746.39, 0.000, 0.000, 0.000, 19:25:48.238
121, -6512.76, -6597.12, -6632.14, -6568.95, -60543.74, -97568.52, -127334.27, -113746.86, 0.000, 0.000, 0.000, 19:25:48.238
122, -6513.25, -6597.81, -6632.92, -6569.98, -60544.75, -97569.67, -127335.63, -113748.27, 0.000, 0.000, 0.000, 19:25:48.238
123, -6512.36, -6597.01, -6632.34, -6569.42, -60544.41, -97569.32, -127335.52, -113748.25, 0.040, -0.002, 0.982, 19:25:48.238
124, -6511.44, -6596.00, -6631.25, -6568.22, -60543.18, -97567.95, -127333.91, -113746.84, 0.000, 0.000, 0.000, 19:25:48.238
125, -6511.15, -6595.57, -6630.58, -6567.37, -60542.25, -97566.88, -127332.72, -113745.50, 0.000, 0.000, 0.000, 19:25:48.238
126, -6511.82, -6596.11, -6631.14, -6567.95, -60542.83, -97567.40, -127333.26, -113746.03, 0.000, 0.000, 0.000, 19:25:48.238
127, -6511.60, -6595.91, -6631.09, -6568.04, -60542.94, -97567.80, -127333.84, -113746.55, 0.000, 0.000, 0.000, 19:25:48.238
128, -6509.43, -6594.03, -6629.26, -6566.43, -60541.35, -97566.41, -127332.56, -113745.37, 0.000, 0.000, 0.000, 19:25:48.238
129, -6507.98, -6592.62, -6627.72, -6564.82, -60539.68, -97564.53, -127330.59, -113743.42, 0.000, 0.000, 0.000, 19:25:48.239
130, -6510.41, -6594.70, -6629.68, -6566.52, -60541.46, -97566.10, -127331.94, -113744.80, 0.000, 0.000, 0.000, 19:25:48.239
131, -6510.71, -6594.97, -6629.91, -6566.85, -60541.75, -97566.41, -127332.34, -113745.14, 0.000, 0.000, 0.000, 19:25:48.239
132, -6508.69, -6593.12, -6628.12, -6565.13, -60540.23, -97565.05, -127331.13, -113743.98, 0.000, 0.000, 0.000, 19:25:48.239
133, -6507.58, -6592.24, -6627.34, -6564.44, -60539.74, -97564.60, -127330.93, -113743.82, 0.034, 0.000, 0.976, 19:25:48.239
134, -6506.73, -6591.22, -6626.26, -6563.39, -60538.49, -97563.22, -127329.37, -113742.26, 0.000, 0.000, 0.000, 19:25:48.239
135, -6509.36, -6593.54, -6628.59, -6565.51, -60540.46, -97565.09, -127330.93, -113743.87, 0.000, 0.000, 0.000, 19:25:48.239
136, -6510.97, -6595.19, -6630.29, -6567.17, -60542.18, -97566.79, -127332.79, -113745.68, 0.000, 0.000, 0.000, 19:25:48.239
137, -6511.24, -6595.69, -6630.69, -6567.77, -60542.98, -97567.69, -127334.02, -113746.82, 0.000, 0.000, 0.000, 19:25:48.240
138, -6512.92, -6597.59, -6632.68, -6569.87, -60545.18, -97569.98, -127336.52, -113749.30, 0.000, 0.000, 0.000, 19:25:48.240
139, -6511.60, -6596.16, -6631.27, -6568.42, -60543.48, -97568.24, -127334.46, -113747.38, 0.000, 0.000, 0.000, 19:25:48.240
140, -6511.67, -6595.96, -6631.02, -6567.93, -60543.03, -97567.53, -127333.55, -113746.48, 0.000, 0.000, 0.000, 19:25:48.240
141, -6513.43, -6597.65, -6632.70, -6569.60, -60544.70, -97569.18, -127335.29, -113748.23, 0.000, 0.000, 0.000, 19:25:48.240
142, -6515.27, -6599.64, -6634.56, -6571.73, -60546.89, -97571.59, -127337.95, -113750.80, 0.000, 0.000, 0.000, 19:25:48.240
143, -6513.34, -6597.88, -6632.92, -6570.16, -60545.46, -97570.26, -127336.84, -113749.72, 0.042, -0.002, 0.976, 19:25:48.240
144, -6509.97, -6594.46, -6629.55, -6566.63, -60541.91, -97566.52, -127332.81, -113745.72, 0.000, 0.000, 0.000, 19:25:48.240
145, -6508.54, -6592.94, -6627.92, -6564.89, -60540.05, -97564.40, -127330.44, -113743.40, 0.000, 0.000, 0.000, 19:25:48.241
146, -6509.65, -6593.97, -6628.88, -6565.85, -60541.08, -97565.43, -127331.58, -113744.63, 0.000, 0.000, 0.000, 19:25:48.241
147, -6514.06, -6598.41, -6633.35, -6570.47, -60545.84, -97570.50, -127336.95, -113749.88, 0.000, 0.000, 0.000, 19:25:48.241
148, -6517.86, -6602.41, -6637.51, -6574.63, -60550.14, -97574.84, -127341.55, -113754.57, 0.000, 0.000, 0.000, 19:25:48.241
149, -6514.35, -6599.06, -6634.13, -6571.10, -60546.65, -97570.95, -127337.44, -113750.62, 0.000, 0.000, 0.000, 19:25:48.241
150, -6513.68, -6598.08, -6633.10, -6569.89, -60545.40, -97569.43, -127335.73, -113748.91, 0.000, 0.000, 0.000, 19:25:48.241
151, -6515.33, -6599.67, -6634.60, -6571.48, -60546.89, -97571.10, -127337.57, -113750.52, 0.000, 0.000, 0.000, 19:25:48.241
152, -6516.09, -6600.60, -6635.50, -6572.51, -60547.99, -97572.55, -127339.27, -113752.20, 0.000, 0.000, 0.000, 19:25:48.241
153, -6515.27, -6599.93, -6634.91, -6572.04, -60547.61, -97572.27, -127339.05, -113752.07, 0.040, -0.002, 0.974, 19:25:48.242
154, -6513.19, -6597.88, -6632.81, -6569.85, -60545.33, -97569.77, -127336.30, -113749.39, 0.000, 0.000, 0.000, 19:25:48.242
155, -6511.33, -6595.73, -6630.64, -6567.41, -60542.98, -97567.13, -127333.44, -113746.62, 0.000, 0.000, 0.000, 19:25:48.242
156, -6512.67, -6596.96, -6631.81, -6568.73, -60544.32, -97568.55, -127334.89, -113747.91, 0.000, 0.000, 0.000, 19:25:48.242
157, -6515.56, -6599.84, -6634.69, -6571.73, -60547.45, -97571.95, -127338.64, -113751.40, 0.000, 0.000, 0.000, 19:25:48.242
158, -6514.24, -6598.61, -6633.60, -6570.72, -60546.54, -97571.10, -127338.02, -113750.88, 0.000, 0.000, 0.000, 19:25:48.242
159, -6511.04, -6595.44, -6630.49, -6567.52, -60543.18, -97567.53, -127334.06, -113747.24, 0.000, 0.000, 0.000, 19:25:48.242
160, -6510.33, -6594.68, -6629.66, -6566.52, -60542.07, -97566.26, -127332.56, -113745.79, 0.000, 0.000, 0.000, 19:25:48.242
161, -6509.57, -6593.97, -6628.83, -6565.76, -60541.39, -97565.67, -127332.05, -113745.12, 0.000, 0.000, 0.000, 19:25:48.243
162, -6512.72, -6597.16, -6631.92, -6569.11, -60544.88, -97569.32, -127336.14, -113749.01, 0.000, 0.000, 0.000, 19:25:48.243
163, -6511.24, -6595.93, -6630.80, -6567.97, -60543.81, -97568.29, -127335.29, -113748.27, 0.042, -0.006, 0.980, 19:25:48.243
164, -6507.55, -6592.20, -6627.11, -6564.08, -60539.90, -97564.24, -127330.89, -113744.09, 0.000, 0.000, 0.000, 19:25:48.243
165, -6505.36, -6589.67, -6624.70, -6561.38, -60537.15, -97561.43, -127327.73, -113740.96, 0.000, 0.000, 0.000, 19:25:48.243
166, -6507.35, -6591.55, -6626.55, -6563.30, -60539.14, -97563.26, -127329.77, -113742.93, 0.000, 0.000, 0.000, 19:25:48.243
167, -6510.10, -6594.14, -6629.10, -6566.20, -60542.07, -97566.44, -127333.37, -113746.30, 0.000, 0.000, 0.000, 19:25:48.243
168, -6508.81, -6593.09, -6628.14, -6565.40, -60541.29, -97565.74, -127332.81, -113745.88, 0.000, 0.000, 0.000, 19:25:48.243
169, -6508.31, -6592.67, -6627.78, -6564.95, -60540.70, -97564.94, -127331.67, -113744.94, 0.000, 0.000, 0.000, 19:25:48.244
170, -6507.51, -6591.66, -6626.78, -6563.70, -60539.41, -97563.48, -127330.02, -113743.28, 0.000, 0.000, 0.000, 19:25:48.244
171, -6506.12, -6590.23, -6625.35, -6562.32, -60538.04, -97562.16, -127328.88, -113742.05, 0.000, 0.000, 0.000, 19:25:48.244
172, -6507.53, -6591.73, -6626.82, -6563.86, -60539.81, -97564.11, -127331.20, -113744.34, 0.000, 0.000, 0.000, 19:25:48.244
173, -6508.47, -6592.78, -6627.96, -6565.02, -60541.17, -97565.45, -127332.66, -113745.84, 0.040, -0.004, 0.978, 19:25:48.244
174, -6507.02, -6591.35, -6626.40, -6563.34, -60539.43, -97563.46, -127330.30, -113743.51, 0.000, 0.000, 0.000, 19:25:48.244
175, -6508.07, -6592.02, -6626.93, -6563.70, -60539.70, -97563.62, -127330.35, -113743.53, 0.000, 0.000, 0.000, 19:25:48.244
176, -6507.69, -6591.71, -6626.60, -6563.50, -60539.45, -97563.59, -127330.51, -113743.60, 0.000, 0.000, 0.000, 19:25:48.245
177, -6507.69, -6592.18, -6627.11, -6564.30, -60540.52, -97564.71, -127332.01, -113745.14, 0.000, 0.000, 0.000, 19:25:48.245
178, -6508.85, -6593.50, -6628.61, -6565.76, -60542.09, -97566.14, -127333.39, -113746.64, 0.000, 0.000, 0.000, 19:25:48.245
179, -6509.97, -6594.08, -6629.01, -6565.91, -60542.13, -97566.10, -127332.99, -113746.17, 0.000, 0.000, 0.000, 19:25:48.245
180, -6512.43, -6596.36, -6630.89, -6567.81, -60543.95, -97567.80, -127334.76, -113747.84, 0.000, 0.000, 0.000, 19:25:48.245
181, -6509.30, -6593.38, -6628.01, -6565.06, -60541.24, -97565.16, -127332.36, -113745.50, 0.000, 0.000, 0.000, 19:25:48.245
182, -6503.44, -6588.09, -6623.02, -6560.37, -60536.61, -97560.73, -127328.05, -113741.25, 0.000, 0.000, 0.000, 19:25:48.245
183, -6502.81, -6587.39, -6622.53, -6559.72, -60536.10, -97560.13, -127327.52, -113740.67, 0.038, -0.006, 0.980, 19:25:48.245
184, -6504.94, -6588.87, -6623.89, -6560.73, -60537.06, -97560.84, -127328.07, -113741.05, 0.000, 0.000, 0.000, 19:25:48.246
185, -6508.02, -6591.75, -6626.55, -6563.39, -60539.63, -97563.44, -127330.53, -113743.55, 0.000, 0.000, 0.000, 19:25:48.246
186, -6507.58, -6591.64, -6626.44, -6563.57, -60539.74, -97563.73, -127330.93, -113744.09, 0.000, 0.000, 0.000, 19:25:48.246
187, -6506.57, -6590.97, -6626.17, -6563.41, -60539.90, -97564.04, -127331.23, -113744.73, 0.000, 0.000, 0.000, 19:25:48.246
188, -6504.11, -6588.60, -6623.76, -6560.97, -60537.48, -97561.47, -127328.77, -113742.19, 0.000, 0.000, 0.000, 19:25:48.246
189, -6507.04, -6590.99, -6625.86, -6562.85, -60539.16, -97563.04, -127330.17, -113743.30, 0.000, 0.000, 0.000, 19:25:48.246
190, -6508.63, -6592.29, -6627.05, -6563.86, -60540.26, -97564.02, -127331.20, -113744.31, 0.000, 0.000, 0.000, 19:25:48.246
191, -6509.14, -6593.14, -6628.01, -6565.09, -60541.53, -97565.49, -127332.67, -113745.95, 0.000, 0.000, 0.000, 19:25:48.247
192, -6508.54, -6593.18, -6628.30, -6565.56, -60542.22, -97566.30, -127333.68, -113747.22, 0.000, 0.000, 0.000, 19:25:48.247
193, -6508.38, -6592.98, -6628.16, -6565.29, -60542.02, -97566.01, -127333.41, -113746.86, 0.040, 0.002, 0.968, 19:25:48.247
194, -6507.40, -6591.46, -6626.40, -6563.46, -60539.86, -97563.64, -127331.05, -113744.24, 0.000, 0.000, 0.000, 19:25:48.247
195, -6508.76, -6592.49, -6627.36, -6564.26, -60540.66, -97564.42, -127331.83, -113744.88, 0.000, 0.000, 0.000, 19:25:48.247
196, -6508.69, -6592.74, -6627.67, -6564.75, -60541.17, -97565.12, -127332.52, -113745.77, 0.000, 0.000, 0.000, 19:25:48.247
197, -6505.70, -6590.30, -6625.46, -6562.78, -60539.32, -97563.48, -127331.05, -113744.49, 0.000, 0.000, 0.000, 19:25:48.247
198, -6505.41, -6589.83, -6625.10, -6562.27, -60539.03, -97562.99, -127330.59, -113743.98, 0.000, 0.000, 0.000, 19:25:48.248
199, -6508.69, -6592.56, -6627.47, -6564.48, -60541.13, -97564.94, -127332.38, -113745.52, 0.000, 0.000, 0.000, 19:25:48.248
200, -6508.69, -6592.38, -6627.07, -6564.06, -60540.64, -97564.27, -127331.78, -113744.85, 0.000, 0.000, 0.000, 19:25:48.248
201, -6507.04, -6590.99, -6625.82, -6563.01, -60539.61, -97563.41, -127330.91, -113744.24, 0.000, 0.000, 0.000, 19:25:48.248
202, -6506.10, -6590.50, -6625.59, -6563.05, -60539.92, -97563.77, -127331.49, -113744.91, 0.000, 0.000, 0.000, 19:25:48.248
203, -6505.83, -6590.21, -6625.46, -6562.76, -60539.70, -97563.46, -127331.18, -113744.58, 0.000, 0.000, 0.000, 19:25:48.248
204, -6506.50, -6590.34, -6625.33, -6562.27, -60539.21, -97562.77, -127330.38, -113743.64, 0.044, -0.002, 0.974, 19:25:48.248
205, -6508.63, -6592.29, -6627.00, -6563.88, -60540.68, -97564.29, -127331.83, -113745.01, 0.000, 0.000, 0.000, 19:25:48.248
206, -6507.96, -6591.93, -6626.76, -6563.81, -60540.68, -97564.40, -127332.05, -113745.45, 0.000, 0.000, 0.000, 19:25:48.249
207, -6504.56, -6588.89, -6623.98, -6561.33, -60538.49, -97562.14, -127329.95, -113743.58, 0.000, 0.000, 0.000, 19:25:48.249
208, -6505.85, -6590.08, -6625.24, -6562.61, -60539.74, -97563.33, -127331.09, -113744.63, 0.000, 0.000, 0.000, 19:25:48.249
209, -6510.33, -6594.01, -6628.92, -6566.07, -60543.05, -97566.61, -127334.22, -113747.64, 0.000, 0.000, 0.000, 19:25:48.249
210, -6510.88, -6594.37, -6629.13, -6566.16, -60543.18, -97566.68, -127334.20, -113747.66, 0.000, 0.000, 0.000, 19:25:48.716
211, -6509.14, -6593.03, -6627.87, -6565.11, -60542.18, -97565.74, -127333.50, -113746.99, 0.000, 0.000, 0.000, 19:25:48.716
212, -6506.68, -6591.13, -6626.22, -6563.59, -60540.79, -97564.42, -127332.41, -113746.17, 0.000, 0.000, 0.000, 19:25:48.716
213, -6505.83, -6590.23, -6625.39, -6562.56, -60539.90, -97563.46, -127331.31, -113744.96, 0.000, 0.000, 0.000, 19:25:48.716
214, -6508.78, -6592.65, -6627.45, -6564.46, -60541.73, -97565.07, -127332.92, -113746.17, 0.036, 0.000, 0.974, 19:25:48.716
215, -6511.09, -6594.59, -6629.37, -6566.20, -60543.50, -97566.88, -127334.69, -113747.89, 0.000, 0.000, 0.000, 19:25:48.716
216, -6508.78, -6592.65, -6627.65, -6564.68, -60541.96, -97565.49, -127333.34, -113746.80, 0.000, 0.000, 0.000, 19:25:48.716
217, -6505.21, -6589.67, -6624.92, -6562.18, -60539.59, -97563.22, -127331.20, -113744.78, 0.000, 0.000, 0.000, 19:25:48.717
218, -6506.91, -6591.35, -6626.53, -6563.70, -60541.22, -97564.67, -127332.77, -113746.26, 0.000, 0.000, 0.000, 19:25:48.717
219, -6508.36, -6592.18, -6627.05, -6563.99, -60541.55, -97564.73, -127332.72, -113746.03, 0.000, 0.000, 0.000, 19:25:48.717
220, -6508.85, -6592.33, -6627.16, -6564.13, -60541.51, -97564.76, -127332.61, -113745.85, 0.000, 0.000, 0.000, 19:25:48.717
221, -6507.51, -6591.42, -6626.46, -6563.52, -60540.97, -97564.49, -127332.34, -113745.84, 0.000, 0.000, 0.000, 19:25:48.717
222, -6506.12, -6590.61, -6625.88, -6563.12, -60540.82, -97564.34, -127332.38, -113746.02, 0.000, 0.000, 0.000, 19:25:48.717
223, -6505.01, -6589.38, -6624.70, -6561.85, -60539.56, -97562.88, -127331.11, -113744.60, 0.000, 0.000, 0.000, 19:25:48.717
224, -6508.27, -6592.24, -6627.09, -6564.06, -60541.73, -97564.84, -127333.01, -113746.37, 0.042, -0.010, 0.976, 19:25:48.717
225, -6510.19, -6593.90, -6628.59, -6565.62, -60543.18, -97566.21, -127334.33, -113747.66, 0.000, 0.000, 0.000, 19:25:48.718
226, -6509.14, -6593.21, -6628.01, -6565.15, -60542.78, -97566.05, -127334.17, -113747.73, 0.000, 0.000, 0.000, 19:25:48.718
227, -6506.48, -6591.06, -6626.24, -6563.52, -60541.31, -97564.67, -127332.95, -113746.59, 0.000, 0.000, 0.000, 19:25:48.718
228, -6503.82, -6588.24, -6623.36, -6560.64, -60538.54, -97561.70, -127330.04, -113743.58, 0.000, 0.000, 0.000, 19:25:48.718
229, -6506.01, -6589.94, -6624.81, -6561.73, -60539.63, -97562.66, -127330.87, -113744.09, 0.000, 0.000, 0.000, 19:25:48.718
230, -6508.56, -6592.22, -6627.05, -6563.90, -60541.75, -97564.78, -127332.95, -113746.15, 0.000, 0.000, 0.000, 19:25:48.718
231, -6508.38, -6592.36, -6627.27, -6564.33, -60542.29, -97565.38, -127333.46, -113747.15, 0.000, 0.000, 0.000, 19:25:48.718
232, -6506.61, -6590.99, -6626.20, -6563.41, -60541.53, -97564.78, -127333.03, -113746.80, 0.000, 0.000, 0.000, 19:25:48.718
233, -6504.40, -6588.65, -6623.98, -6561.04, -60539.18, -97562.30, -127330.53, -113744.16, 0.000, 0.000, 0.000, 19:25:48.719
234, -6506.88, -6590.68, -6625.68, -6562.56, -60540.61, -97563.59, -127331.71, -113745.19, 0.044, -0.004, 0.982, 19:25:48.719
235, -6507.78, -6591.40, -6626.22, -6563.08, -60541.11, -97564.00, -127332.20, -113745.63, 0.000, 0.000, 0.000, 19:25:48.719
236, -6504.98, -6588.89, -6623.76, -6560.97, -60539.03, -97562.05, -127330.20, -113743.87, 0.000, 0.000, 0.000, 19:25:48.719
237, -6503.26, -6587.60, -6622.80, -6560.10, -60538.38, -97561.47, -127329.77, -113743.58, 0.000, 0.000, 0.000, 19:25:48.719
238, -6503.87, -6587.98, -6623.20, -6560.44, -60538.71, -97561.74, -127330.10, -113743.87, 0.000, 0.000, 0.000, 19:25:48.719
239, -6506.97, -6590.79, -6625.68, -6562.67, -60540.88, -97563.80, -127332.09, -113745.56, 0.000, 0.000, 0.000, 19:25:48.719
240, -6508.58, -6592.47, -6627.14, -6564.13, -60542.25, -97565.16, -127333.46, -113746.84, 0.000, 0.000, 0.000, 19:25:48.720
241, -6504.89, -6588.98, -6623.81, -6561.04, -60539.21, -97562.19, -127330.53, -113744.24, 0.000, 0.000, 0.000, 19:25:48.720
242, -6501.59, -6586.05, -6621.01, -6558.40, -60536.79, -97559.80, -127328.25, -113742.16, 0.000, 0.000, 0.000, 19:25:48.720
243, -6503.58, -6587.91, -6622.96, -6560.21, -60538.67, -97561.59, -127330.04, -113743.89, 0.000, 0.000, 0.000, 19:25:48.720
244, -6505.30, -6589.20, -6624.10, -6561.06, -60539.38, -97562.23, -127330.58, -113744.27, 0.040, -0.008, 0.982, 19:25:48.720
245, -6505.83, -6589.56, -6624.32, -6561.22, -60539.52, -97562.34, -127330.66, -113744.31, 0.000, 0.000, 0.000, 19:25:48.720
246, -6506.17, -6590.10, -6624.92, -6562.00, -60540.39, -97563.33, -127331.76, -113745.43, 0.000, 0.000, 0.000, 19:25:48.720
247, -6504.80, -6589.20, -6624.21, -6561.44, -60540.05, -97563.06, -127331.49, -113745.38, 0.000, 0.000, 0.000, 19:25:48.720
248, -6505.34, -6589.72, -6624.77, -6561.98, -60540.66, -97563.38, -127331.78, -113745.72, 0.000, 0.000, 0.000, 19:25:48.721
249, -6505.50, -6589.45, -6624.32, -6561.27, -60539.81, -97562.48, -127330.82, -113744.47, 0.000, 0.000, 0.000, 19:25:48.721
250, -6505.50, -6589.23, -6623.85, -6560.84, -60539.18, -97561.94, -127330.38, -113744.02, 0.000, 0.000, 0.000, 19:25:48.721
251, -6506.01, -6589.94, -6624.59, -6561.89, -60540.26, -97563.10, -127331.60, -113745.37, 0.000, 0.000, 0.000, 19:25:48.721
252, -6505.70, -6590.19, -6625.03, -6562.54, -60541.06, -97563.93, -127332.50, -113746.37, 0.000, 0.000, 0.000, 19:25:48.721
253, -6503.33, -6587.80, -6622.75, -6560.08, -60538.67, -97561.52, -127330.04, -113743.82, 0.000, 0.000, 0.000, 19:25:48.721
254, -6506.30, -6590.30, -6625.15, -6562.23, -60540.75, -97563.35, -127331.83, -113745.59, 0.036, -0.008, 0.982, 19:25:48.721
255, -6507.38, -6591.17, -6625.82, -6562.85, -60541.42, -97564.00, -127332.43, -113746.15, 0.000, 0.000, 0.000, 19:25:48.721
0, -6505.83, -6589.96, -6624.70, -6561.94, -60540.57, -97563.20, -127331.71, -113745.56, 0.000, 0.000, 0.000, 19:25:48.722
1, -6504.63, -6589.07, -6623.92, -6561.51, -60540.21, -97562.86, -127331.58, -113745.61, 0.000, 0.000, 0.000, 19:25:48.722
2, -6503.62, -6588.00, -6622.91, -6560.37, -60539.23, -97561.65, -127330.33, -113744.31, 0.000, 0.000, 0.000, 19:25:48.722
3, -6505.07, -6588.98, -6623.76, -6561.04, -60539.83, -97562.05, -127330.71, -113744.60, 0.000, 0.000, 0.000, 19:25:48.722
4, -6508.11, -6591.66, -6626.42, -6563.63, -60542.36, -97564.69, -127333.32, -113747.06, 0.000, 0.000, 0.000, 19:25:48.722
5, -6508.98, -6592.80, -6627.54, -6564.82, -60543.65, -97566.12, -127334.80, -113748.72, 0.000, 0.000, 0.000, 19:25:48.722
6, -6504.40, -6588.60, -6623.56, -6561.00, -60539.96, -97562.55, -127331.31, -113745.32, 0.000, 0.000, 0.000, 19:25:48.722
7, -6503.66, -6587.82, -6622.98, -6560.33, -60539.32, -97561.78, -127330.51, -113744.49, 0.000, 0.000, 0.000, 19:25:48.722
8, -6506.01, -6589.90, -6625.06, -6562.07, -60541.04, -97563.33, -127331.89, -113745.81, 0.038, -0.008, 0.982, 19:25:48.723
9, -6507.80, -6591.57, -6626.55, -6563.50, -60542.47, -97564.73, -127333.30, -113747.13, 0.000, 0.000, 0.000, 19:25:48.723
10, -6506.21, -6590.26, -6625.26, -6562.54, -60541.39, -97563.80, -127332.54, -113746.41, 0.000, 0.000, 0.000, 19:25:48.723
11, -6504.65, -6588.98, -6624.14, -6561.71, -60540.64, -97563.04, -127331.94, -113745.95, 0.000, 0.000, 0.000, 19:25:48.723
12, -6504.13, -6588.31, -6623.56, -6561.00, -60540.03, -97562.32, -127331.29, -113745.25, 0.000, 0.000, 0.000, 19:25:48.723
13, -6504.07, -6587.89, -6622.87, -6560.08, -60539.12, -97561.30, -127330.15, -113744.02, 0.000, 0.000, 0.000, 19:25:48.723
14, -6504.83, -6588.53, -6623.47, -6560.55, -60539.61, -97561.72, -127330.53, -113744.41, 0.000, 0.000, 0.000, 19:25:48.723
15, -6505.03, -6589.05, -6623.98, -6561.20, -60540.23, -97562.68, -127331.42, -113745.38, 0.000, 0.000, 0.000, 19:25:48.723
16, -6506.26, -6590.43, -6625.55, -6563.05, -60542.09, -97564.67, -127333.48, -113747.60, 0.000, 0.000, 0.000, 19:25:48.724
17, -6505.39, -6589.58, -6624.77, -6562.25, -60541.39, -97563.70, -127332.59, -113746.73, 0.000, 0.000, 0.000, 19:25:48.724
18, -6503.51, -6587.28, -6622.31, -6559.61, -60538.78, -97560.87, -127329.73, -113743.80, 0.036, -0.002, 0.976, 19:25:48.724
19, -6503.82, -6587.42, -6622.42, -6559.59, -60538.71, -97560.82, -127329.68, -113743.66, 0.000, 0.000, 0.000, 19:25:48.724
20, -6504.87, -6588.65, -6623.74, -6561.02, -60540.17, -97562.43, -127331.31, -113745.32, 0.000, 0.000, 0.000, 19:25:48.724
21, -6506.12, -6590.21, -6625.46, -6562.83, -60542.07, -97564.45, -127333.44, -113747.58, 0.000, 0.000, 0.000, 19:25:48.724
22, -6505.30, -6589.27, -6624.63, -6561.94, -60541.29, -97563.46, -127332.48, -113746.62, 0.000, 0.000, 0.000, 19:25:48.724
23, -6507.11, -6590.93, -6626.11, -6563.23, -60542.52, -97564.49, -127333.64, -113747.55, 0.000, 0.000, 0.000, 19:25:48.725
24, -6509.48, -6593.18, -6628.14, -6565.33, -60544.48, -97566.55, -127335.73, -113749.61, 0.000, 0.000, 0.000, 19:25:48.725
25, -6507.44, -6591.40, -6626.44, -6563.72, -60542.94, -97565.14, -127334.33, -113748.31, 0.000, 0.000, 0.000, 19:25:48.725
26, -6505.34, -6589.63, -6624.88, -6562.29, -60541.51, -97563.73, -127333.10, -113747.06, 0.000, 0.000, 0.000, 19:25:48.725
27, -6505.27, -6589.54, -6624.77, -6562.23, -60541.46, -97563.62, -127333.05, -113747.02, 0.000, 0.000, 0.000, 19:25:48.725
28, -6506.61, -6590.61, -6625.59, -6562.90, -60542.07, -97564.20, -127333.44, -113747.33, 0.038, 0.000, 0.970, 19:25:48.725
29, -6505.81, -6589.67, -6624.59, -6561.73, -60540.91, -97563.08, -127332.27, -113746.19, 0.000, 0.000, 0.000, 19:25:48.725
30, -6505.52, -6589.65, -6624.65, -6561.82, -60540.95, -97563.26, -127332.54, -113746.55, 0.000, 0.000, 0.000, 19:25:48.726
31, -6505.34, -6589.72, -6624.90, -6562.27, -60541.42, -97563.82, -127333.21, -113747.29, 0.000, 0.000, 0.000, 19:25:48.726
32, -6504.04, -6588.31, -6623.67, -6560.97, -60540.05, -97562.39, -127331.83, -113746.02, 0.000, 0.000, 0.000, 19:25:48.726
33, -6503.71, -6587.73, -6622.96, -6560.15, -60539.07, -97561.31, -127330.77, -113744.88, 0.000, 0.000, 0.000, 19:25:48.726
34, -6503.84, -6587.73, -6622.78, -6559.97, -60538.78, -97561.09, -127330.55, -113744.60, 0.000, 0.000, 0.000, 19:25:48.726
35, -6504.29, -6588.42, -6623.51, -6560.80, -60539.61, -97562.10, -127331.70, -113745.70, 0.000, 0.000, 0.000, 19:25:48.726
36, -6504.96, -6589.32, -6624.52, -6561.96, -60540.79, -97563.28, -127333.08, -113747.20, 0.000, 0.000, 0.000, 19:25:48.727
37, -6502.70, -6587.06, -6622.29, -6559.72, -60538.63, -97561.02, -127330.80, -113744.88, 0.000, 0.000, 0.000, 19:25:48.727
38, -6501.43, -6585.52, -6620.63, -6558.05, -60536.77, -97559.13, -127328.70, -113742.84, 0.000, 0.000, 0.000, 19:25:48.727
39, -6504.31, -6588.27, -6623.29, -6560.66, -60539.09, -97561.65, -127331.34, -113745.43, 0.046, -0.002, 0.970, 19:25:48.727
40, -6507.17, -6591.33, -6626.33, -6563.75, -60542.22, -97564.89, -127334.73, -113748.83, 0.000, 0.000, 0.000, 19:25:48.727
41, -6508.31, -6592.69, -6627.81, -6565.36, -60543.86, -97566.59, -127336.66, -113750.70, 0.000, 0.000, 0.000, 19:25:48.727
42, -6508.81, -6593.21, -6628.43, -6565.96, -60544.32, -97567.02, -127337.03, -113751.29, 0.000, 0.000, 0.000, 19:25:48.727
43, -6506.64, -6590.77, -6625.91, -6563.28, -60541.48, -97564.11, -127334.02, -113748.29, 0.000, 0.000, 0.000, 19:25:48.727
44, -6504.92, -6588.89, -6623.96, -6561.27, -60539.41, -97562.03, -127332.09, -113746.15, 0.000, 0.000, 0.000, 19:25:48.727
45, -6507.51, -6591.66, -6626.71, -6564.17, -60542.09, -97565.00, -127335.16, -113749.34, 0.000, 0.000, 0.000, 19:25:48.728
46, -6508.31, -6592.74, -6628.01, -6565.51, -60543.41, -97566.41, -127336.68, -113751.09, 0.000, 0.000, 0.000, 19:25:48.728
47, -6505.50, -6589.85, -6625.19, -6562.65, -60540.55, -97563.53, -127333.84, -113748.18, 0.000, 0.000, 0.000, 19:25:48.728
48, -6503.84, -6588.04, -6623.27, -6560.55, -60538.31, -97561.23, -127331.47, -113745.72, 0.000, 0.000, 0.000, 19:25:48.728
49, -6506.28, -6590.23, -6625.35, -6562.61, -60540.30, -97563.28, -127333.55, -113747.82, 0.046, -0.004, 0.972, 19:25:48.728
50, -6507.55, -6591.64, -6626.71, -6564.13, -60541.66, -97564.83, -127335.34, -113749.59, 0.000, 0.000, 0.000, 19:25:48.728
51, -6506.88, -6591.28, -6626.49, -6564.01, -60541.51, -97564.73, -127335.41, -113749.79, 0.000, 0.000, 0.000, 19:25:48.728
52, -6505.52, -6589.83, -6625.28, -6562.58, -60540.08, -97563.28, -127334.02, -113748.43, 0.000, 0.000, 0.000, 19:25:48.728
53, -6506.91, -6591.08, -6626.31, -6563.46, -60540.70, -97563.98, -127334.69, -113749.12, 0.000, 0.000, 0.000, 19:25:48.729
54, -6507.53, -6591.57, -6626.76, -6563.79, -60540.97, -97564.29, -127334.98, -113749.37, 0.000, 0.000, 0.000, 19:25:48.729
55, -6506.48, -6590.61, -6625.73, -6563.01, -60540.08, -97563.53, -127334.33, -113748.70, 0.000, 0.000, 0.000, 19:25:48.729
56, -6505.34, -6589.67, -6624.90, -6562.38, -60539.34, -97562.81, -127333.80, -113748.27, 0.000, 0.000, 0.000, 19:25:48.729
57, -6504.92, -6589.23, -6624.63, -6562.07, -60538.96, -97562.39, -127333.48, -113747.98, 0.000, 0.000, 0.000, 19:25:48.729
58, -6508.27, -6592.40, -6627.63, -6564.93, -60541.62, -97565.12, -127336.12, -113750.64, 0.000, 0.000, 0.000, 19:25:48.729
59, -6510.17, -6594.14, -6629.33, -6566.63, -60543.14, -97566.63, -127337.80, -113752.20, 0.042, 0.000, 0.974, 19:25:48.729
60, -6511.09, -6595.22, -6630.47, -6567.75, -60544.23, -97567.77, -127339.16, -113753.52, 0.000, 0.000, 0.000, 19:25:48.730
61, -6508.65, -6593.05, -6628.34, -6565.76, -60542.07, -97565.79, -127337.33, -113751.73, 0.000, 0.000, 0.000, 19:25:48.730
62, -6505.48, -6589.79, -6625.17, -6562.47, -60538.78, -97562.50, -127334.04, -113748.63, 0.000, 0.000, 0.000, 19:25:48.730
63, -6505.41, -6589.50, -6624.77, -6562.05, -60538.09, -97561.88, -127333.39, -113747.89, 0.000, 0.000, 0.000, 19:25:48.730
64, -6505.94, -6589.90, -6625.06, -6562.29, -60538.09, -97562.03, -127333.64, -113748.16, 0.000, 0.000, 0.000, 19:25:48.730
65, -6506.75, -6590.86, -6625.97, -6563.28, -60539.03, -97563.10, -127334.80, -113749.30, 0.000, 0.000, 0.000, 19:25:48.730
66, -6505.41, -6589.63, -6624.83, -6562.29, -60538.00, -97562.10, -127333.88, -113748.49, 0.000, 0.000, 0.000, 19:25:48.730
67, -6501.03, -6585.25, -6620.61, -6558.00, -60533.66, -97557.67, -127329.63, -113744.36, 0.000, 0.000, 0.000, 19:25:48.730
68, -6499.98, -6583.97, -6619.29, -6556.53, -60532.12, -97556.04, -127328.07, -113742.75, 0.000, 0.000, 0.000, 19:25:48.731
69, -6501.36, -6585.32, -6620.50, -6557.67, -60533.17, -97557.11, -127329.14, -113743.91, 0.040, -0.006, 0.980, 19:25:48.731
70, -6506.39, -6590.46, -6625.53, -6562.87, -60538.04, -97562.23, -127334.42, -113749.12, 0.000, 0.000, 0.000, 19:25:48.731
71, -6506.12, -6590.30, -6625.46, -6562.96, -60537.98, -97562.41, -127334.69, -113749.41, 0.000, 0.000, 0.000, 19:25:48.731
72, -6504.22, -6588.49, -6623.78, -6561.29, -60536.32, -97560.69, -127333.01, -113747.84, 0.000, 0.000, 0.000, 19:25:48.731
73, -6505.79, -6589.92, -6625.10, -6562.56, -60537.48, -97561.78, -127334.09, -113749.05, 0.000, 0.000, 0.000, 19:25:48.731
74, -6508.31, -6592.31, -6627.36, -6564.89, -60539.50, -97563.93, -127336.30, -113751.22, 0.000, 0.000, 0.000, 19:25:49.197
75, -6507.73, -6591.77, -6626.73, -6564.39, -60538.74, -97563.38, -127335.91, -113750.73, 0.000, 0.000, 0.000, 19:25:49.197
76, -6505.52, -6589.74, -6624.70, -6562.38, -60536.79, -97561.41, -127334.04, -113748.94, 0.000, 0.000, 0.000, 19:25:49.197
77, -6502.10, -6586.41, -6621.61, -6559.21, -60533.59, -97558.19, -127331.00, -113745.92, 0.000, 0.000, 0.000, 19:25:49.197
78, -6504.29, -6588.49, -6623.69, -6561.20, -60535.34, -97560.02, -127332.84, -113747.69, 0.000, 0.000, 0.000, 19:25:49.197
79, -6508.96, -6592.94, -6628.01, -6565.47, -60539.47, -97564.31, -127336.99, -113751.96, 0.038, -0.004, 0.978, 19:25:49.197
80, -6508.83, -6592.85, -6627.90, -6565.44, -60539.34, -97564.27, -127337.02, -113752.00, 0.000, 0.000, 0.000, 19:25:49.197
81, -6505.97, -6590.19, -6625.30, -6562.87, -60536.70, -97561.72, -127334.66, -113749.61, 0.000, 0.000, 0.000, 19:25:49.198
82, -6503.15, -6587.37, -6622.64, -6560.26, -60533.93, -97558.92, -127331.91, -113746.99, 0.000, 0.000, 0.000, 19:25:49.198
83, -6504.42, -6588.49, -6623.81, -6561.11, -60534.82, -97559.73, -127332.84, -113747.94, 0.000, 0.000, 0.000, 19:25:49.198
84, -6504.00, -6587.93, -6623.09, -6560.44, -60533.84, -97558.90, -127332.03, -113747.15, 0.000, 0.000, 0.000, 19:25:49.198
85, -6504.09, -6588.15, -6623.09, -6560.48, -60533.68, -97558.92, -127332.16, -113747.17, 0.000, 0.000, 0.000, 19:25:49.198
86, -6504.85, -6588.94, -6624.03, -6561.47, -60534.60, -97559.88, -127333.30, -113748.41, 0.000, 0.000, 0.000, 19:25:49.198
87, -6501.79, -6585.87, -6621.23, -6558.67, -60531.81, -97557.07, -127330.66, -113745.81, 0.000, 0.000, 0.000, 19:25:49.198
88, -6501.09, -6585.20, -6620.50, -6557.73, -60530.80, -97556.13, -127329.68, -113744.88, 0.000, 0.000, 0.000, 19:25:49.198
89, -6502.23, -6586.19, -6621.41, -6558.72, -60531.50, -97556.89, -127330.53, -113745.70, 0.038, -0.006, 0.978, 19:25:49.199
90, -6503.26, -6587.19, -6622.24, -6559.68, -60532.25, -97557.94, -127331.58, -113746.66, 0.000, 0.000, 0.000, 19:25:49.199
91, -6505.07, -6589.09, -6624.27, -6561.73, -60534.29, -97559.95, -127333.84, -113748.96, 0.000, 0.000, 0.000, 19:25:49.199
92, -6503.62, -6587.66, -6623.07, -6560.53, -60532.99, -97558.59, -127332.56, -113747.80, 0.000, 0.000, 0.000, 19:25:49.199
93, -6504.96, -6588.82, -6624.16, -6561.58, -60533.82, -97559.59, -127333.39, -113748.72, 0.000, 0.000, 0.000, 19:25:49.199
94, -6505.61, -6589.34, -6624.59, -6561.85, -60533.98, -97559.82, -127333.73, -113748.90, 0.000, 0.000, 0.000, 19:25:49.199
95, -6505.59, -6589.38, -6624.54, -6561.91, -60533.91, -97559.75, -127333.93, -113749.01, 0.000, 0.000, 0.000, 19:25:49.199
96, -6505.61, -6589.52, -6624.83, -6562.16, -60534.09, -97560.00, -127334.24, -113749.50, 0.000, 0.000, 0.000, 19:25:49.199
97, -6503.35, -6587.37, -6622.69, -6560.06, -60531.90, -97557.88, -127332.16, -113747.55, 0.000, 0.000, 0.000, 19:25:49.200
98, -6503.78, -6587.64, -6622.89, -6560.28, -60531.88, -97557.85, -127332.14, -113747.66, 0.000, 0.000, 0.000, 19:25:49.200
99, -6505.18, -6589.05, -6624.14, -6561.60, -60532.93, -97559.15, -127333.37, -113748.80, 0.046, -0.006, 0.980, 19:25:49.200
100, -6505.59, -6589.45, -6624.39, -6562.05, -60533.06, -97559.44, -127333.84, -113749.19, 0.000, 0.000, 0.000, 19:25:49.200
101, -6504.27, -6588.15, -6623.25, -6560.82, -60531.81, -97558.14, -127332.92, -113748.11, 0.000, 0.000, 0.000, 19:25:49.200
102, -6504.00, -6587.93, -6623.25, -6560.88, -60531.65, -97558.05, -127332.84, -113748.18, 0.000, 0.000, 0.000, 19:25:49.200
103, -6504.94, -6588.91, -6624.19, -6561.73, -60532.32, -97558.77, -127333.48, -113749.01, 0.000, 0.000, 0.000, 19:25:49.200
104, -6503.60, -6587.53, -6622.51, -6560.13, -60530.55, -97557.09, -127331.94, -113747.30, 0.000, 0.000, 0.000, 19:25:49.200
105, -6504.69, -6588.62, -6623.43, -6561.22, -60531.43, -97558.01, -127332.99, -113748.34, 0.000, 0.000, 0.000, 19:25:49.201
106, -6505.01, -6588.94, -6623.92, -6561.67, -60531.74, -97558.50, -127333.62, -113748.90, 0.000, 0.000, 0.000, 19:25:49.201
107, -6499.15, -6583.19, -6618.35, -6556.12, -60526.09, -97552.98, -127328.02, -113743.48, 0.000, 0.000, 0.000, 19:25:49.201
108, -6499.64, -6583.64, -6618.82, -6556.46, -60526.27, -97553.20, -127328.20, -113743.89, 0.000, 0.000, 0.000, 19:25:49.201
109, -6502.88, -6586.70, -6621.75, -6559.37, -60528.95, -97555.99, -127331.16, -113746.75, 0.040, -0.006, 0.982, 19:25:49.201
110, -6505.23, -6588.98, -6624.07, -6561.60, -60531.00, -97558.23, -127333.55, -113748.96, 0.000, 0.000, 0.000, 19:25:49.201
111, -6502.88, -6586.66, -6621.84, -6559.37, -60528.68, -97555.98, -127331.45, -113746.84, 0.000, 0.000, 0.000, 19:25:49.201
112, -6500.51, -6584.47, -6619.74, -6557.29, -60526.53, -97553.83, -127329.28, -113745.01, 0.000, 0.000, 0.000, 19:25:49.201
113, -6499.48, -6583.46, -6618.62, -6556.26, -60525.19, -97552.51, -127328.07, -113743.84, 0.000, 0.000, 0.000, 19:25:49.202
114, -6497.88, -6581.65, -6616.79, -6554.40, -60522.98, -97550.56, -127326.17, -113741.77, 0.000, 0.000, 0.000, 19:25:49.202
115, -6501.21, -6584.91, -6620.12, -6557.53, -60525.91, -97553.70, -127329.34, -113744.91, 0.000, 0.000, 0.000, 19:25:49.202
116, -6502.08, -6585.83, -6621.12, -6558.65, -60526.87, -97554.72, -127330.53, -113746.10, 0.000, 0.000, 0.000, 19:25:49.202
117, -6498.08, -6582.07, -6617.44, -6555.19, -60523.25, -97551.19, -127327.02, -113742.84, 0.000, 0.000, 0.000, 19:25:49.202
118, -6496.31, -6580.22, -6615.65, -6553.31, -60521.21, -97549.09, -127325.03, -113740.85, 0.000, 0.000, 0.000, 19:25:49.202
119, -6500.56, -6584.31, -6619.54, -6557.11, -60524.99, -97552.82, -127328.88, -113744.60, 0.000, 0.000, 0.000, 19:25:49.202
120, -6503.22, -6586.81, -6621.88, -6559.37, -60527.07, -97555.13, -127331.31, -113746.88, 0.042, -0.004, 0.978, 19:25:49.203
121, -6503.82, -6587.48, -6622.62, -6560.39, -60527.63, -97555.93, -127332.23, -113747.84, 0.000, 0.000, 0.000, 19:25:49.203
122, -6500.24, -6584.15, -6619.47, -6557.44, -60524.57, -97552.91, -127329.30, -113745.16, 0.000, 0.000, 0.000, 19:25:49.203
123, -6500.42, -6584.24, -6619.56, -6557.55, -60524.57, -97552.89, -127329.28, -113745.25, 0.000, 0.000, 0.000, 19:25:49.203
124, -6502.46, -6586.10, -6621.30, -6559.21, -60525.88, -97554.41, -127330.89, -113746.86, 0.000, 0.000, 0.000, 19:25:49.203
125, -6502.73, -6586.23, -6621.28, -6559.21, -60525.55, -97554.32, -127330.87, -113746.59, 0.000, 0.000, 0.000, 19:25:49.203
126, -6503.06, -6586.70, -6621.82, -6559.79, -60526.06, -97554.88, -127331.54, -113747.22, 0.000, 0.000, 0.000, 19:25:49.203
127, -6498.43, -6582.39, -6617.61, -6555.63, -60521.95, -97550.77, -127327.53, -113743.53, 0.000, 0.000, 0.000, 19:25:49.204
128, -6496.09, -6579.97, -6615.24, -6553.06, -60519.22, -97548.24, -127324.95, -113741.07, 0.000, 0.000, 0.000, 19:25:49.204
129, -6500.16, -6583.80, -6618.98, -6556.86, -60522.66, -97551.80, -127328.52, -113744.49, 0.000, 0.000, 0.000, 19:25:49.204
130, -6503.20, -6586.75, -6621.77, -6559.63, -60525.10, -97554.43, -127331.34, -113747.06, 0.040, 0.000, 0.974, 19:25:49.204
131, -6503.62, -6587.17, -6622.29, -6560.13, -60525.44, -97554.88, -127331.96, -113747.63, 0.000, 0.000, 0.000, 19:25:49.204
132, -6500.47, -6584.42, -6619.71, -6557.58, -60522.87, -97552.45, -127329.52, -113745.59, 0.000, 0.000, 0.000, 19:25:49.204
133, -6500.07, -6584.09, -6619.33, -6557.20, -60522.35, -97552.02, -127328.98, -113745.27, 0.000, 0.000, 0.000, 19:25:49.204
134, -6500.87, -6584.71, -6619.78, -6557.60, -60522.49, -97552.27, -127329.32, -113745.45, 0.000, 0.000, 0.000, 19:25:49.205
135, -6502.32, -6585.87, -6620.81, -6558.58, -60523.16, -97553.00, -127330.26, -113746.05, 0.000, 0.000, 0.000, 19:25:49.205
136, -6503.04, -6586.61, -6621.61, -6559.37, -60523.79, -97553.76, -127331.11, -113747.02, 0.000, 0.000, 0.000, 19:25:49.205
137, -6498.52, -6582.39, -6617.73, -6555.65, -60519.96, -97550.03, -127327.52, -113743.69, 0.000, 0.000, 0.000, 19:25:49.205
138, -6497.61, -6581.49, -6616.83, -6554.92, -60518.96, -97549.20, -127326.62, -113743.09, 0.000, 0.000, 0.000, 19:25:49.205
139, -6500.62, -6584.40, -6619.49, -6557.51, -60521.19, -97551.64, -127329.08, -113745.38, 0.000, 0.000, 0.000, 19:25:49.205
140, -6505.18, -6588.69, -6623.54, -6561.49, -60524.86, -97555.28, -127332.95, -113748.98, 0.044, -0.004, 0.976, 19:25:49.205
141, -6504.92, -6588.49, -6623.43, -6561.42, -60524.63, -97555.05, -127332.90, -113748.90, 0.000, 0.000, 0.000, 19:25:49.205
142, -6498.86, -6582.72, -6617.93, -6556.03, -60519.27, -97549.85, -127327.71, -113744.29, 0.000, 0.000, 0.000, 19:25:49.206
143, -6496.58, -6580.44, -6615.58, -6553.69, -60516.88, -97547.57, -127325.50, -113742.13, 0.000, 0.000, 0.000, 19:25:49.206
144, -6499.48, -6583.17, -6618.06, -6556.10, -60519.04, -97549.85, -127327.73, -113744.20, 0.000, 0.000, 0.000, 19:25:49.206
145, -6504.40, -6587.89, -6622.51, -6560.59, -60523.05, -97553.94, -127331.94, -113748.13, 0.000, 0.000, 0.000, 19:25:49.206
146, -6506.08, -6589.61, -6624.21, -6562.45, -60524.70, -97555.66, -127333.91, -113750.05, 0.000, 0.000, 0.000, 19:25:49.206
147, -6501.43, -6585.34, -6620.39, -6558.76, -60521.10, -97552.15, -127330.48, -113747.06, 0.000, 0.000, 0.000, 19:25:49.206
148, -6500.74, -6584.73, -6619.74, -6558.20, -60520.23, -97551.55, -127329.86, -113746.62, 0.000, 0.000, 0.000, 19:25:49.206
149, -6500.27, -6583.97, -6618.80, -6557.02, -60518.82, -97550.20, -127328.61, -113745.07, 0.000, 0.000, 0.000, 19:25:49.206
150, -6503.26, -6586.77, -6621.30, -6559.50, -60520.83, -97552.22, -127330.71, -113746.86, 0.038, -0.002, 0.978, 19:25:49.207
151, -6502.12, -6585.58, -6620.18, -6558.36, -60519.52, -97551.03, -127329.66, -113745.92, 0.000, 0.000, 0.000, 19:25:49.207
152, -6499.46, -6583.19, -6618.31, -6556.55, -60517.84, -97549.60, -127328.30, -113745.01, 0.000, 0.000, 0.000, 19:25:49.207
153, -6498.41, -6582.28, -6617.44, -6555.79, -60516.92, -97548.80, -127327.52, -113744.36, 0.000, 0.000, 0.000, 19:25:49.207
154, -6501.34, -6585.05, -6619.94, -6558.16, -60518.98, -97550.90, -127329.66, -113746.33, 0.000, 0.000, 0.000, 19:25:49.207
155, -6507.00, -6590.41, -6624.92, -6563.05, -60523.52, -97555.41, -127334.33, -113750.57, 0.000, 0.000, 0.000, 19:25:49.207
156, -6507.69, -6591.13, -6625.77, -6563.95, -60524.03, -97556.24, -127335.27, -113751.47, 0.000, 0.000, 0.000, 19:25:49.207
157, -6503.55, -6587.42, -6622.46, -6560.73, -60521.04, -97553.34, -127332.43, -113749.14, 0.000, 0.000, 0.000, 19:25:49.207
158, -6501.81, -6585.63, -6620.81, -6559.16, -60519.29, -97551.66, -127330.89, -113747.78, 0.000, 0.000, 0.000, 19:25:49.208
159, -6502.26, -6585.81, -6620.79, -6559.03, -60518.75, -97551.28, -127330.48, -113747.29, 0.000, 0.000, 0.000, 19:25:49.208
160, -6505.79, -6589.07, -6623.72, -6561.73, -60521.01, -97553.60, -127332.88, -113749.30, 0.112, -0.020, 0.976, 19:25:49.208
161, -6504.96, -6588.38, -6623.11, -6561.18, -60520.25, -97552.93, -127332.34, -113748.76, 0.000, 0.000, 0.000, 19:25:49.208
162, -6498.19, -6582.07, -6617.14, -6555.59, -60514.71, -97547.62, -127327.09, -113744.07, 0.000, 0.000, 0.000, 19:25:49.208
163, -6495.64, -6579.57, -6614.71, -6553.26, -60512.14, -97545.13, -127324.70, -113741.83, 0.000, 0.000, 0.000, 19:25:49.208
164, -6498.79, -6582.41, -6617.44, -6555.74, -60514.29, -97547.30, -127326.88, -113743.87, 0.000, 0.000, 0.000, 19:25:49.208
165, -6504.38, -6587.57, -6622.29, -6560.44, -60518.60, -97551.75, -127331.34, -113747.84, 0.000, 0.000, 0.000, 19:25:49.208
166, -6503.71, -6586.88, -6621.68, -6559.88, -60517.88, -97551.15, -127330.93, -113747.38, 0.000, 0.000, 0.000, 19:25:49.209
167, -6498.52, -6582.23, -6617.39, -6555.79, -60513.88, -97547.34, -127327.20, -113744.24, 0.000, 0.000, 0.000, 19:25:49.209
168, -6499.33, -6583.19, -6618.33, -6556.82, -60514.75, -97548.40, -127328.25, -113745.54, 0.000, 0.000, 0.000, 19:25:49.209
169, -6501.27, -6584.85, -6619.89, -6558.20, -60515.82, -97549.47, -127329.52, -113746.48, 0.000, 0.000, 0.000, 19:25:49.209
170, -6505.85, -6589.09, -6623.76, -6561.96, -60519.16, -97552.87, -127333.05, -113749.56, 0.014, 0.030, 0.962, 19:25:49.209
171, -6506.59, -6589.92, -6624.65, -6562.78, -60519.78, -97553.65, -127333.95, -113750.51, 0.000, 0.000, 0.000, 19:25:49.209
172, -6502.03, -6585.87, -6621.01, -6559.37, -60516.43, -97550.50, -127330.87, -113748.00, 0.000, 0.000, 0.000, 19:25:49.209
173, -6498.90, -6583.08, -6618.06, -6556.73, -60513.50, -97547.57, -127327.91, -113745.32, 0.000, 0.000, 0.000, 19:25:49.210
174, -6500.22, -6584.24, -6618.84, -6557.64, -60513.73, -97548.06, -127328.32, -113745.50, 0.000, 0.000, 0.000, 19:25:49.210
175, -6506.03, -6589.43, -6623.96, -6562.36, -60518.29, -97552.71, -127333.26, -113749.79, 0.000, 0.000, 0.000, 19:25:49.210
176, -6504.38, -6587.60, -6622.40, -6560.62, -60516.54, -97551.03, -127331.83, -113748.41, 0.000, 0.000, 0.000, 19:25:49.210
177, -6498.50, -6582.34, -6617.57, -6556.03, -60511.96, -97546.72, -127327.47, -113744.60, 0.000, 0.000, 0.000, 19:25:49.210
178, -6498.17, -6582.16, -6617.46, -6555.95, -60511.71, -97546.61, -127327.31, -113744.73, 0.000, 0.000, 0.000, 19:25:49.210
179, -6501.88, -6585.63, -6620.59, -6558.98, -60514.35, -97549.34, -127330.13, -113747.33, 0.000, 0.000, 0.000, 19:25:49.210
180, -6504.27, -6587.71, -6622.17, -6560.53, -60515.40, -97550.36, -127331.27, -113748.09, 0.012, 0.042, 0.978, 19:25:49.211
181, -6503.69, -6587.13, -6621.82, -6560.15, -60514.80, -97549.91, -127330.77, -113747.89, 0.000, 0.000, 0.000, 19:25:49.211
182, -6500.42, -6584.31, -6619.54, -6558.02, -60512.79, -97548.20, -127329.14, -113746.73, 0.000, 0.000, 0.000, 19:25:49.211
183, -6498.57, -6582.52, -6617.77, -6556.37, -60511.02, -97546.50, -127327.53, -113745.30, 0.000, 0.000, 0.000, 19:25:49.211
184, -6500.38, -6584.06, -6619.09, -6557.55, -60511.78, -97547.39, -127328.41, -113745.85, 0.000, 0.000, 0.000, 19:25:49.211
185, -6504.02, -6587.35, -6621.97, -6560.37, -60513.97, -97549.70, -127330.80, -113747.82, 0.000, 0.000, 0.000, 19:25:49.211
186, -6505.05, -6588.33, -6623.07, -6561.49, -60514.98, -97550.70, -127332.05, -113749.07, 0.000, 0.000, 0.000, 19:25:49.212
187, -6501.14, -6585.07, -6620.21, -6558.87, -60512.41, -97548.35, -127329.86, -113747.40, 0.000, 0.000, 0.000, 19:25:49.212
188, -6501.38, -6585.40, -6620.61, -6559.32, -60512.74, -97548.84, -127330.24, -113748.00, 0.000, 0.000, 0.000, 19:25:49.212
189, -6503.87, -6587.60, -6622.53, -6561.18, -60514.21, -97550.38, -127331.76, -113749.39, 0.000, 0.000, 0.000, 19:25:49.212
190, -6509.19, -6592.60, -6627.11, -6565.53, -60518.02, -97554.30, -127335.78, -113752.88, 0.018, 0.034, 0.952, 19:25:49.212
191, -6509.68, -6593.05, -6627.72, -6566.07, -60518.35, -97554.72, -127336.45, -113753.52, 0.000, 0.000, 0.000, 19:25:49.212
192, -6503.44, -6587.26, -6622.53, -6561.15, -60513.55, -97550.19, -127331.94, -113749.68, 0.000, 0.000, 0.000, 19:25:49.212
