%OpenBCI Raw EEG Data
%
%Sample Rate = 250.0 Hz
%First Column = SampleIndex
%Last Column = Timestamp 
%Other Columns = EEG data in microvolts followed by Accel Data (in G) interleaved with Aux Data
0, 0.00, 0.00, 0.00, 0.00, 0.00, 0.00, 0.00, 0.00, 0.040, -0.004, 0.984, 18:40:33.122
1, -6433.41, -6512.00, -6552.88, -6491.55, -58854.71, -93316.90, -116641.63, -103720.85, 0.000, 0.000, 0.000, 18:40:33.601
2, -6430.19, -6509.57, -6551.34, -6490.12, -58853.97, -93315.83, -116640.83, -103720.18, 0.000, 0.000, 0.000, 18:40:33.602
3, -6436.68, -6515.04, -6556.15, -6494.41, -58858.04, -93319.67, -116644.52, -103723.20, 0.000, 0.000, 0.000, 18:40:33.602
4, -6441.50, -6518.80, -6558.83, -6496.89, -58860.01, -93321.81, -116646.46, -103724.77, 0.000, 0.000, 0.000, 18:40:33.602
5, -6439.58, -6517.01, -6556.91, -6495.26, -58858.42, -93320.54, -116645.19, -103723.67, 0.000, 0.000, 0.000, 18:40:33.602
6, -6434.15, -6512.78, -6553.51, -6492.31, -58855.98, -93318.13, -116643.06, -103722.26, 0.000, 0.000, 0.000, 18:40:33.602
7, -6429.61, -6509.10, -6550.76, -6489.47, -58853.91, -93315.67, -116640.88, -103720.23, 0.000, 0.000, 0.000, 18:40:33.602
8, -6435.72, -6514.04, -6555.14, -6493.32, -58857.64, -93319.00, -116644.16, -103722.80, 0.048, -0.008, 0.968, 18:40:33.602
9, -6444.54, -6521.70, -6561.78, -6499.80, -58863.50, -93325.03, -116649.98, -103728.38, 0.000, 0.000, 0.000, 18:40:33.602
10, -6444.45, -6521.77, -6561.62, -6499.98, -58863.65, -93325.48, -116650.42, -103729.10, 0.000, 0.000, 0.000, 18:40:33.602
11, -6437.01, -6515.58, -6556.35, -6495.01, -58859.34, -93321.19, -116646.46, -103725.59, 0.000, 0.000, 0.000, 18:40:33.603
12, -6434.06, -6513.39, -6555.14, -6493.74, -58858.78, -93320.34, -116645.93, -103725.21, 0.000, 0.000, 0.000, 18:40:33.603
13, -6438.71, -6516.87, -6557.98, -6496.00, -58860.93, -93322.22, -116647.65, -103726.33, 0.000, 0.000, 0.000, 18:40:33.603
14, -6445.01, -6522.15, -6562.27, -6500.16, -58864.37, -93325.95, -116651.02, -103729.50, 0.000, 0.000, 0.000, 18:40:33.603
15, -6445.15, -6522.42, -6562.43, -6500.65, -58864.88, -93326.71, -116651.88, -103730.51, 0.000, 0.000, 0.000, 18:40:33.603
16, -6438.06, -6516.52, -6557.51, -6496.02, -58860.99, -93322.80, -116648.41, -103727.34, 0.000, 0.000, 0.000, 18:40:33.603
17, -6432.05, -6511.38, -6553.11, -6491.66, -58857.19, -93318.69, -116644.66, -103723.71, 0.000, 0.000, 0.000, 18:40:33.603
18, -6437.77, -6516.00, -6557.13, -6495.10, -58860.55, -93321.68, -116647.42, -103725.95, 0.044, -0.006, 0.976, 18:40:33.604
19, -6443.67, -6520.74, -6560.77, -6498.68, -58863.61, -93324.92, -116650.27, -103728.56, 0.000, 0.000, 0.000, 18:40:33.604
20, -6443.87, -6521.12, -6561.06, -6499.33, -58864.19, -93325.82, -116651.11, -103729.84, 0.000, 0.000, 0.000, 18:40:33.604
21, -6436.32, -6514.91, -6555.68, -6494.34, -58859.85, -93321.44, -116647.13, -103726.40, 0.000, 0.000, 0.000, 18:40:33.604
22, -6431.24, -6510.64, -6552.32, -6490.88, -58857.10, -93318.38, -116644.38, -103723.69, 0.000, 0.000, 0.000, 18:40:33.604
23, -6437.57, -6515.78, -6556.88, -6494.81, -58860.95, -93321.91, -116647.80, -103726.33, 0.000, 0.000, 0.000, 18:40:33.604
24, -6443.02, -6520.14, -6560.19, -6498.03, -58863.70, -93324.77, -116650.42, -103728.67, 0.000, 0.000, 0.000, 18:40:33.604
25, -6440.54, -6517.79, -6557.71, -6496.04, -58861.55, -93322.93, -116648.56, -103727.20, 0.000, 0.000, 0.000, 18:40:33.604
26, -6433.28, -6511.76, -6552.55, -6491.28, -58857.30, -93318.80, -116644.83, -103723.94, 0.000, 0.000, 0.000, 18:40:33.605
27, -6428.16, -6507.42, -6549.17, -6487.73, -58854.53, -93315.60, -116641.91, -103721.19, 0.000, 0.000, 0.000, 18:40:33.605
28, -6435.65, -6513.77, -6554.89, -6492.96, -58859.56, -93320.36, -116646.51, -103725.13, 0.040, -0.004, 0.972, 18:40:33.605
29, -6442.76, -6519.71, -6559.81, -6497.67, -58863.88, -93324.77, -116650.69, -103728.99, 0.000, 0.000, 0.000, 18:40:33.605
30, -6442.00, -6519.15, -6559.12, -6497.36, -58863.47, -93324.72, -116650.62, -103729.30, 0.000, 0.000, 0.000, 18:40:33.605
31, -6434.08, -6512.56, -6553.46, -6492.00, -58858.73, -93320.01, -116646.35, -103725.52, 0.000, 0.000, 0.000, 18:40:33.605
32, -6428.76, -6508.00, -6549.87, -6488.17, -58855.72, -93316.56, -116643.31, -103722.44, 0.000, 0.000, 0.000, 18:40:33.605
33, -6437.06, -6515.13, -6556.26, -6494.21, -58861.55, -93322.06, -116648.59, -103727.11, 0.000, 0.000, 0.000, 18:40:33.605
34, -6446.15, -6523.16, -6563.23, -6501.09, -58867.86, -93328.61, -116654.80, -103733.08, 0.000, 0.000, 0.000, 18:40:33.605
35, -6445.04, -6522.33, -6562.32, -6500.47, -58867.18, -93328.27, -116654.55, -103733.08, 0.000, 0.000, 0.000, 18:40:33.606
36, -6439.18, -6517.72, -6558.65, -6497.18, -58864.55, -93325.62, -116652.16, -103731.31, 0.000, 0.000, 0.000, 18:40:33.606
37, -6434.64, -6513.99, -6555.68, -6494.10, -58862.20, -93322.98, -116649.80, -103729.10, 0.000, 0.000, 0.000, 18:40:33.606
38, -6438.73, -6516.94, -6557.87, -6495.82, -58863.70, -93324.21, -116650.78, -103729.48, 0.040, -0.006, 0.976, 18:40:33.606
39, -6445.48, -6522.71, -6562.40, -6500.40, -58867.65, -93328.30, -116654.76, -103733.13, 0.000, 0.000, 0.000, 18:40:33.606
40, -6445.48, -6522.93, -6562.65, -6500.94, -58868.12, -93329.15, -116655.56, -103734.22, 0.000, 0.000, 0.000, 18:40:33.606
41, -6438.84, -6517.59, -6558.31, -6497.00, -58864.73, -93325.66, -116652.55, -103731.73, 0.000, 0.000, 0.000, 18:40:33.606
42, -6434.13, -6513.68, -6555.36, -6493.85, -58862.38, -93322.87, -116650.15, -103729.39, 0.000, 0.000, 0.000, 18:40:33.606
43, -6441.55, -6519.87, -6560.88, -6498.81, -58867.23, -93327.47, -116654.45, -103733.02, 0.000, 0.000, 0.000, 18:40:33.607
44, -6445.95, -6523.29, -6563.23, -6501.05, -58868.93, -93329.39, -116656.05, -103734.27, 0.000, 0.000, 0.000, 18:40:33.607
45, -6444.54, -6522.15, -6561.96, -6500.11, -58867.99, -93328.68, -116655.41, -103733.93, 0.000, 0.000, 0.000, 18:40:33.607
46, -6436.99, -6515.85, -6556.59, -6495.10, -58863.56, -93324.27, -116651.38, -103730.55, 0.000, 0.000, 0.000, 18:40:33.608
47, -6431.67, -6511.29, -6552.99, -6491.37, -58860.43, -93320.90, -116648.27, -103727.55, 0.000, 0.000, 0.000, 18:40:33.608
48, -6440.68, -6519.09, -6560.17, -6497.88, -58866.82, -93327.05, -116654.24, -103732.79, 0.036, -0.002, 0.980, 18:40:33.608
49, -6447.96, -6525.28, -6565.33, -6502.88, -58871.36, -93331.74, -116658.66, -103736.97, 0.000, 0.000, 0.000, 18:40:33.608
50, -6444.21, -6521.88, -6561.78, -6499.75, -58868.14, -93328.77, -116655.70, -103734.45, 0.000, 0.000, 0.000, 18:40:33.608
51, -6436.12, -6515.04, -6555.90, -6494.14, -58863.23, -93323.85, -116651.20, -103730.33, 0.000, 0.000, 0.000, 18:40:33.608
52, -6431.22, -6510.88, -6552.66, -6490.79, -58860.52, -93320.90, -116648.48, -103727.70, 0.000, 0.000, 0.000, 18:40:33.608
53, -6440.01, -6518.53, -6559.63, -6497.14, -58866.71, -93326.76, -116654.16, -103732.84, 0.000, 0.000, 0.000, 18:40:33.609
54, -6446.40, -6523.85, -6563.86, -6501.43, -58870.45, -93330.71, -116657.82, -103736.12, 0.000, 0.000, 0.000, 18:40:33.609
55, -6446.42, -6524.25, -6564.06, -6501.99, -58871.05, -93331.43, -116658.66, -103737.26, 0.000, 0.000, 0.000, 18:40:33.609
56, -6439.52, -6518.60, -6559.39, -6497.83, -58867.32, -93327.83, -116655.38, -103734.45, 0.000, 0.000, 0.000, 18:40:33.609
57, -6434.71, -6514.50, -6556.12, -6494.48, -58864.70, -93324.81, -116652.77, -103731.89, 0.000, 0.000, 0.000, 18:40:33.609
58, -6440.79, -6519.44, -6560.35, -6498.08, -58868.14, -93327.96, -116655.65, -103734.29, 0.036, -0.002, 0.976, 18:40:33.609
59, -6445.84, -6523.45, -6563.34, -6500.98, -58870.56, -93330.51, -116657.91, -103736.30, 0.000, 0.000, 0.000, 18:40:33.609
60, -6442.91, -6520.85, -6560.71, -6498.72, -58868.26, -93328.50, -116655.80, -103734.58, 0.000, 0.000, 0.000, 18:40:33.609
61, -6437.28, -6516.36, -6557.22, -6495.51, -58865.71, -93326.06, -116653.64, -103732.95, 0.000, 0.000, 0.000, 18:40:33.610
62, -6435.54, -6515.24, -6557.06, -6495.24, -58866.13, -93326.15, -116654.13, -103733.41, 0.000, 0.000, 0.000, 18:40:33.610
63, -6444.70, -6523.24, -6564.37, -6502.06, -58872.66, -93332.41, -116660.27, -103738.91, 0.000, 0.000, 0.000, 18:40:33.610
64, -6449.75, -6527.25, -6567.21, -6504.92, -58874.94, -93334.82, -116662.52, -103740.86, 0.000, 0.000, 0.000, 18:40:33.610
65, -6446.60, -6524.29, -6564.26, -6502.32, -58872.30, -93332.52, -116660.27, -103738.87, 0.000, 0.000, 0.000, 18:40:33.610
66, -6438.51, -6517.63, -6558.47, -6496.78, -58867.47, -93327.72, -116655.85, -103734.94, 0.000, 0.000, 0.000, 18:40:33.611
67, -6435.65, -6515.49, -6557.20, -6495.39, -58866.87, -93326.66, -116655.00, -103734.27, 0.000, 0.000, 0.000, 18:40:33.611
68, -6443.40, -6521.97, -6562.99, -6500.67, -58871.99, -93331.41, -116659.47, -103738.22, 0.034, -0.002, 0.974, 18:40:33.611
69, -6449.08, -6526.60, -6566.43, -6504.07, -58874.85, -93334.51, -116662.38, -103740.90, 0.000, 0.000, 0.000, 18:40:33.611
70, -6445.82, -6523.60, -6563.34, -6501.38, -58872.17, -93332.12, -116660.10, -103738.73, 0.000, 0.000, 0.000, 18:40:33.611
71, -6436.83, -6515.94, -6556.59, -6494.95, -58866.31, -93326.29, -116654.63, -103733.82, 0.000, 0.000, 0.000, 18:40:33.611
72, -6432.88, -6512.69, -6554.25, -6492.44, -58864.46, -93324.09, -116652.72, -103732.05, 0.000, 0.000, 0.000, 18:40:33.611
73, -6439.40, -6518.04, -6558.92, -6496.53, -58868.48, -93327.83, -116656.23, -103734.82, 0.000, 0.000, 0.000, 18:40:33.611
74, -6447.58, -6525.17, -6564.95, -6502.55, -58873.96, -93333.48, -116661.62, -103739.96, 0.000, 0.000, 0.000, 18:40:33.612
75, -6446.06, -6523.83, -6563.59, -6501.59, -58872.91, -93332.63, -116660.91, -103739.61, 0.000, 0.000, 0.000, 18:40:33.612
76, -6437.57, -6516.74, -6557.35, -6495.64, -58867.59, -93327.34, -116655.96, -103735.18, 0.000, 0.000, 0.000, 18:40:33.612
77, -6432.99, -6513.03, -6554.47, -6492.65, -58865.20, -93324.72, -116653.57, -103732.95, 0.000, 0.000, 0.000, 18:40:33.612
78, -6440.41, -6519.15, -6559.81, -6497.45, -58869.96, -93329.20, -116657.75, -103736.50, 0.000, 0.000, 0.000, 18:40:33.612
79, -6448.21, -6525.84, -6565.40, -6503.04, -58874.98, -93334.45, -116662.73, -103741.20, 0.038, -0.004, 0.966, 18:40:33.612
80, -6445.06, -6522.95, -6562.49, -6500.54, -58872.37, -93332.12, -116660.55, -103739.27, 0.000, 0.000, 0.000, 18:40:33.612
81, -6436.10, -6515.47, -6555.95, -6494.25, -58866.80, -93326.51, -116655.31, -103734.55, 0.000, 0.000, 0.000, 18:40:33.613
82, -6431.78, -6511.87, -6553.24, -6491.35, -58864.64, -93323.91, -116653.08, -103732.38, 0.000, 0.000, 0.000, 18:40:33.613
83, -6439.49, -6518.35, -6559.01, -6496.51, -58869.66, -93328.77, -116657.64, -103736.27, 0.000, 0.000, 0.000, 18:40:33.613
84, -6444.66, -6522.62, -6562.16, -6499.60, -58872.30, -93331.59, -116660.21, -103738.66, 0.000, 0.000, 0.000, 18:40:33.613
85, -6443.16, -6521.43, -6560.84, -6498.81, -58871.41, -93330.96, -116659.77, -103738.33, 0.000, 0.000, 0.000, 18:40:33.613
86, -6436.07, -6515.60, -6555.97, -6494.28, -58867.59, -93327.11, -116656.25, -103735.42, 0.000, 0.000, 0.000, 18:40:33.613
87, -6434.78, -6515.13, -6556.39, -6494.52, -58868.50, -93327.60, -116657.02, -103736.27, 0.000, 0.000, 0.000, 18:40:33.614
88, -6440.19, -6519.31, -6559.83, -6497.47, -58871.07, -93330.06, -116659.25, -103737.93, 0.000, 0.000, 0.000, 18:40:33.614
89, -6445.59, -6523.62, -6563.19, -6500.71, -58873.89, -93332.97, -116661.93, -103740.32, 0.044, -0.006, 0.976, 18:40:33.614
90, -6443.36, -6521.59, -6560.97, -6499.02, -58872.30, -93331.54, -116660.59, -103739.18, 0.000, 0.000, 0.000, 18:40:33.614
91, -6437.12, -6516.61, -6557.00, -6495.35, -58869.20, -93328.52, -116657.86, -103737.08, 0.000, 0.000, 0.000, 18:40:33.614
92, -6432.41, -6512.65, -6553.91, -6492.13, -58866.58, -93325.55, -116655.25, -103734.58, 0.000, 0.000, 0.000, 18:40:33.614
93, -6438.87, -6517.79, -6558.36, -6496.06, -58870.27, -93328.95, -116658.47, -103737.03, 0.000, 0.000, 0.000, 18:40:33.614
94, -6445.48, -6523.40, -6562.94, -6500.62, -58874.31, -93333.15, -116662.40, -103740.74, 0.000, 0.000, 0.000, 18:40:33.614
95, -6446.27, -6524.52, -6564.06, -6502.10, -58875.81, -93334.94, -116664.23, -103742.91, 0.000, 0.000, 0.000, 18:40:33.614
96, -6440.45, -6520.05, -6560.44, -6498.86, -58873.24, -93332.41, -116662.06, -103741.23, 0.000, 0.000, 0.000, 18:40:33.615
97, -6437.44, -6517.68, -6558.94, -6497.14, -58872.21, -93331.05, -116660.97, -103740.30, 0.000, 0.000, 0.000, 18:40:33.615
98, -6441.79, -6520.83, -6561.27, -6498.90, -58873.84, -93332.48, -116662.18, -103740.74, 0.000, 0.000, 0.000, 18:40:33.615
99, -6446.87, -6524.97, -6564.13, -6501.90, -58876.32, -93335.02, -116664.61, -103742.91, 0.036, -0.004, 0.978, 18:40:33.615
100, -6445.17, -6523.40, -6562.63, -6500.71, -58875.21, -93334.11, -116663.79, -103742.42, 0.000, 0.000, 0.000, 18:40:33.615
101, -6437.50, -6517.03, -6557.29, -6495.66, -58870.71, -93329.80, -116659.72, -103738.84, 0.000, 0.000, 0.000, 18:40:33.615
102, -6433.21, -6513.43, -6554.47, -6492.71, -58868.39, -93327.16, -116657.39, -103736.50, 0.000, 0.000, 0.000, 18:40:33.616
103, -6438.93, -6517.92, -6558.27, -6495.89, -58871.41, -93329.86, -116659.88, -103738.38, 0.000, 0.000, 0.000, 18:40:33.616
104, -6446.35, -6524.23, -6563.52, -6501.16, -58876.17, -93334.94, -116664.63, -103742.94, 0.000, 0.000, 0.000, 18:40:33.616
105, -6446.44, -6524.85, -6563.99, -6502.12, -58877.04, -93336.08, -116665.87, -103744.52, 0.000, 0.000, 0.000, 18:40:33.616
106, -6439.58, -6519.20, -6559.43, -6497.85, -58873.46, -93332.30, -116662.63, -103741.80, 0.000, 0.000, 0.000, 18:40:33.616
107, -6436.32, -6516.56, -6557.64, -6495.91, -58872.13, -93330.69, -116661.26, -103740.48, 0.000, 0.000, 0.000, 18:40:33.616
108, -6442.42, -6521.48, -6561.67, -6499.40, -58875.41, -93333.73, -116664.08, -103742.66, 0.000, 0.000, 0.000, 18:40:33.616
109, -6446.71, -6524.83, -6563.86, -6501.56, -58877.13, -93335.67, -116665.64, -103744.03, 0.034, -0.006, 0.978, 18:40:33.616
110, -6444.30, -6522.55, -6561.73, -6499.69, -58875.30, -93334.09, -116664.14, -103742.80, 0.000, 0.000, 0.000, 18:40:33.617
111, -6438.49, -6518.08, -6558.27, -6496.74, -58872.86, -93331.61, -116662.13, -103741.30, 0.000, 0.000, 0.000, 18:40:33.617
112, -6434.26, -6514.55, -6555.45, -6493.92, -58870.69, -93329.03, -116659.88, -103739.07, 0.000, 0.000, 0.000, 18:40:33.617
113, -6440.48, -6519.47, -6559.72, -6497.56, -58874.11, -93332.23, -116662.80, -103741.30, 0.000, 0.000, 0.000, 18:40:33.617
114, -6444.21, -6522.31, -6561.51, -6499.31, -58875.36, -93333.69, -116664.03, -103742.29, 0.000, 0.000, 0.000, 18:40:33.617
115, -6441.68, -6520.07, -6559.25, -6497.52, -58873.58, -93332.09, -116662.52, -103741.10, 0.000, 0.000, 0.000, 18:40:33.617
116, -6435.13, -6514.73, -6554.92, -6493.54, -58870.25, -93328.74, -116659.67, -103738.73, 0.000, 0.000, 0.000, 18:40:33.618
117, -6431.22, -6511.40, -6552.41, -6490.86, -58868.21, -93326.40, -116657.48, -103736.66, 0.000, 0.000, 0.000, 18:40:33.618
118, -6438.87, -6517.81, -6557.93, -6495.77, -58872.95, -93330.96, -116661.77, -103740.23, 0.000, 0.000, 0.000, 18:40:33.618
119, -6444.16, -6522.22, -6561.42, -6499.08, -58875.86, -93334.09, -116664.63, -103742.71, 0.038, -0.008, 0.978, 18:40:33.618
120, -6441.01, -6519.49, -6558.52, -6496.67, -58873.35, -93331.94, -116662.58, -103741.04, 0.000, 0.000, 0.000, 18:40:33.618
121, -6433.44, -6513.23, -6553.22, -6491.71, -58869.17, -93327.72, -116658.65, -103737.82, 0.000, 0.000, 0.000, 18:40:34.084
122, -6430.73, -6511.13, -6552.01, -6490.28, -58868.50, -93326.45, -116657.86, -103737.05, 0.000, 0.000, 0.000, 18:40:34.084
123, -6438.51, -6517.70, -6557.78, -6495.55, -58873.44, -93331.20, -116662.29, -103740.90, 0.000, 0.000, 0.000, 18:40:34.084
124, -6445.57, -6523.74, -6562.78, -6500.58, -58877.93, -93335.98, -116666.80, -103745.06, 0.000, 0.000, 0.000, 18:40:34.084
125, -6444.77, -6523.22, -6562.23, -6500.49, -58877.89, -93336.16, -116667.07, -103745.64, 0.000, 0.000, 0.000, 18:40:34.084
126, -6438.80, -6518.71, -6558.63, -6497.25, -58875.30, -93333.55, -116664.84, -103743.96, 0.000, 0.000, 0.000, 18:40:34.084
127, -6433.19, -6513.68, -6554.47, -6492.82, -58871.57, -93329.44, -116661.04, -103740.12, 0.000, 0.000, 0.000, 18:40:34.085
128, -6438.51, -6517.57, -6557.69, -6495.57, -58874.07, -93331.65, -116662.96, -103741.44, 0.000, 0.000, 0.000, 18:40:34.085
129, -6444.83, -6523.02, -6562.07, -6499.91, -58877.89, -93335.74, -116666.76, -103745.04, 0.046, -0.008, 0.978, 18:40:34.085
130, -6442.87, -6521.50, -6560.48, -6498.66, -58876.75, -93334.80, -116665.95, -103744.57, 0.000, 0.000, 0.000, 18:40:34.085
131, -6434.20, -6514.17, -6554.09, -6492.53, -58871.34, -93329.46, -116660.91, -103740.19, 0.000, 0.000, 0.000, 18:40:34.085
132, -6430.53, -6511.13, -6551.83, -6490.14, -58869.55, -93327.38, -116659.09, -103738.40, 0.000, 0.000, 0.000, 18:40:34.085
133, -6438.06, -6517.41, -6557.33, -6495.10, -58874.25, -93331.83, -116663.38, -103741.88, 0.000, 0.000, 0.000, 18:40:34.086
134, -6443.76, -6522.10, -6561.00, -6498.66, -58877.31, -93335.02, -116666.52, -103744.75, 0.000, 0.000, 0.000, 18:40:34.086
135, -6441.84, -6520.58, -6559.48, -6497.50, -58876.15, -93334.02, -116665.62, -103744.14, 0.000, 0.000, 0.000, 18:40:34.086
136, -6433.73, -6513.86, -6553.62, -6492.22, -58871.45, -93329.35, -116661.26, -103740.27, 0.000, 0.000, 0.000, 18:40:34.086
137, -6431.27, -6512.00, -6552.48, -6490.95, -58870.96, -93328.45, -116660.55, -103739.67, 0.000, 0.000, 0.000, 18:40:34.086
138, -6437.06, -6516.52, -6556.21, -6494.17, -58873.96, -93331.13, -116663.05, -103741.57, 0.000, 0.000, 0.000, 18:40:34.086
139, -6441.08, -6519.42, -6558.16, -6496.13, -58875.27, -93332.84, -116664.50, -103742.76, 0.046, -0.002, 0.976, 18:40:34.086
140, -6438.78, -6517.52, -6556.35, -6494.63, -58873.75, -93331.70, -116663.34, -103741.88, 0.000, 0.000, 0.000, 18:40:34.086
141, -6429.86, -6509.92, -6549.73, -6488.40, -58868.30, -93326.04, -116658.06, -103737.21, 0.000, 0.000, 0.000, 18:40:34.087
142, -6429.05, -6509.70, -6550.29, -6488.71, -58869.29, -93326.69, -116658.98, -103738.04, 0.000, 0.000, 0.000, 18:40:34.087
143, -6439.34, -6518.64, -6558.40, -6496.27, -58876.68, -93333.86, -116665.91, -103744.37, 0.000, 0.000, 0.000, 18:40:34.087
144, -6445.01, -6523.31, -6562.11, -6500.02, -58879.95, -93337.17, -116669.09, -103747.36, 0.000, 0.000, 0.000, 18:40:34.087
145, -6442.00, -6520.70, -6559.54, -6497.67, -58877.67, -93335.20, -116667.14, -103745.82, 0.000, 0.000, 0.000, 18:40:34.087
146, -6435.51, -6515.67, -6555.39, -6493.99, -58874.54, -93332.19, -116664.39, -103743.59, 0.000, 0.000, 0.000, 18:40:34.087
147, -6430.35, -6511.11, -6551.65, -6490.03, -58871.27, -93328.45, -116660.95, -103740.12, 0.000, 0.000, 0.000, 18:40:34.087
148, -6435.29, -6514.75, -6554.47, -6492.33, -58873.31, -93330.27, -116662.55, -103741.17, 0.000, 0.000, 0.000, 18:40:34.088
149, -6438.55, -6517.01, -6555.72, -6493.67, -58874.09, -93331.31, -116663.48, -103741.69, 0.042, 0.002, 0.978, 18:40:34.088
150, -6436.63, -6515.40, -6554.18, -6492.40, -58872.88, -93330.40, -116662.67, -103741.20, 0.000, 0.000, 0.000, 18:40:34.088
151, -6431.27, -6511.47, -6551.21, -6489.76, -58870.98, -93328.43, -116660.97, -103740.12, 0.000, 0.000, 0.000, 18:40:34.088
152, -6427.22, -6508.09, -6548.55, -6486.90, -58868.84, -93325.84, -116658.69, -103737.88, 0.000, 0.000, 0.000, 18:40:34.088
153, -6435.83, -6515.42, -6555.01, -6492.85, -58874.47, -93331.27, -116663.83, -103742.40, 0.000, 0.000, 0.000, 18:40:34.088
154, -6442.58, -6521.10, -6559.77, -6497.67, -58878.76, -93335.85, -116668.10, -103746.42, 0.000, 0.000, 0.000, 18:40:34.088
155, -6442.85, -6521.88, -6560.62, -6498.93, -58879.95, -93337.28, -116669.71, -103748.26, 0.000, 0.000, 0.000, 18:40:34.089
156, -6434.08, -6514.53, -6554.20, -6492.82, -58874.54, -93331.88, -116664.73, -103743.70, 0.000, 0.000, 0.000, 18:40:34.089
157, -6427.00, -6507.96, -6548.48, -6486.90, -58869.38, -93326.17, -116659.31, -103738.33, 0.000, 0.000, 0.000, 18:40:34.089
158, -6436.23, -6515.91, -6555.52, -6493.45, -58875.63, -93332.16, -116665.09, -103743.56, 0.000, 0.000, 0.000, 18:40:34.089
159, -6442.82, -6521.48, -6560.13, -6498.01, -58879.61, -93336.55, -116669.06, -103747.30, 0.046, 0.000, 0.984, 18:40:34.089
160, -6441.42, -6520.43, -6559.14, -6497.38, -58879.03, -93336.21, -116668.86, -103747.45, 0.000, 0.000, 0.000, 18:40:34.089
161, -6432.14, -6512.58, -6552.21, -6490.83, -58873.18, -93330.29, -116663.34, -103742.51, 0.000, 0.000, 0.000, 18:40:34.090
162, -6426.95, -6508.05, -6548.37, -6486.79, -58869.80, -93326.53, -116659.78, -103738.96, 0.000, 0.000, 0.000, 18:40:34.090
163, -6434.69, -6514.50, -6554.02, -6491.93, -58874.63, -93331.16, -116664.14, -103742.63, 0.000, 0.000, 0.000, 18:40:34.090
164, -6442.02, -6520.88, -6559.54, -6497.29, -58879.59, -93336.32, -116669.04, -103747.36, 0.000, 0.000, 0.000, 18:40:34.090
165, -6439.63, -6518.73, -6557.49, -6495.53, -58877.93, -93334.89, -116667.77, -103746.42, 0.000, 0.000, 0.000, 18:40:34.090
166, -6431.80, -6512.31, -6552.06, -6490.52, -58873.51, -93330.51, -116663.70, -103742.87, 0.000, 0.000, 0.000, 18:40:34.090
167, -6427.58, -6508.74, -6549.15, -6487.48, -58871.07, -93327.63, -116661.15, -103740.32, 0.000, 0.000, 0.000, 18:40:34.090
168, -6435.36, -6515.15, -6554.76, -6492.44, -58875.92, -93332.14, -116665.55, -103744.03, 0.000, 0.000, 0.000, 18:40:34.091
169, -6441.59, -6520.43, -6559.10, -6496.80, -58879.77, -93336.21, -116669.30, -103747.65, 0.000, 0.000, 0.000, 18:40:34.091
170, -6440.68, -6519.91, -6558.52, -6496.67, -58879.77, -93336.32, -116669.53, -103748.13, 0.046, 0.000, 0.978, 18:40:34.091
171, -6432.74, -6513.32, -6552.93, -6491.44, -58875.01, -93331.83, -116665.28, -103744.45, 0.000, 0.000, 0.000, 18:40:34.091
172, -6429.93, -6510.97, -6551.39, -6489.69, -58874.00, -93330.31, -116664.05, -103743.30, 0.000, 0.000, 0.000, 18:40:34.091
173, -6437.12, -6516.79, -6556.33, -6494.08, -58878.16, -93334.22, -116667.81, -103746.42, 0.000, 0.000, 0.000, 18:40:34.091
174, -6442.35, -6521.03, -6559.59, -6497.45, -58880.93, -93337.26, -116670.52, -103748.93, 0.000, 0.000, 0.000, 18:40:34.091
175, -6441.21, -6520.32, -6558.92, -6497.14, -58880.57, -93337.26, -116670.65, -103749.28, 0.000, 0.000, 0.000, 18:40:34.091
176, -6436.14, -6516.56, -6556.12, -6494.77, -58878.83, -93335.45, -116669.24, -103748.32, 0.000, 0.000, 0.000, 18:40:34.092
177, -6433.46, -6514.33, -6554.69, -6493.11, -58877.89, -93334.11, -116668.10, -103747.20, 0.000, 0.000, 0.000, 18:40:34.092
178, -6439.56, -6519.24, -6558.83, -6496.69, -58881.20, -93337.23, -116670.96, -103749.44, 0.000, 0.000, 0.000, 18:40:34.092
179, -6442.15, -6520.92, -6559.50, -6497.29, -58881.36, -93337.66, -116671.12, -103749.30, 0.000, 0.000, 0.000, 18:40:34.092
180, -6440.68, -6519.80, -6558.47, -6496.65, -58880.66, -93337.20, -116670.89, -103749.40, 0.040, -0.002, 0.978, 18:40:34.092
181, -6434.82, -6515.29, -6554.96, -6493.54, -58878.27, -93334.71, -116668.68, -103747.85, 0.000, 0.000, 0.000, 18:40:34.092
182, -6430.26, -6511.15, -6551.70, -6490.03, -58875.41, -93331.49, -116665.71, -103744.86, 0.000, 0.000, 0.000, 18:40:34.092
183, -6438.15, -6517.72, -6557.44, -6495.26, -58880.33, -93336.12, -116670.20, -103748.73, 0.000, 0.000, 0.000, 18:40:34.092
184, -6446.49, -6525.06, -6563.79, -6501.65, -58886.21, -93342.31, -116676.02, -103754.34, 0.000, 0.000, 0.000, 18:40:34.093
185, -6444.01, -6522.95, -6561.71, -6500.04, -58884.51, -93340.95, -116674.74, -103753.35, 0.000, 0.000, 0.000, 18:40:34.093
186, -6435.56, -6515.91, -6555.61, -6494.21, -58879.39, -93335.74, -116669.93, -103749.17, 0.000, 0.000, 0.000, 18:40:34.093
187, -6430.98, -6511.82, -6552.26, -6490.59, -58876.53, -93332.50, -116666.91, -103746.16, 0.000, 0.000, 0.000, 18:40:34.093
188, -6437.62, -6517.08, -6556.73, -6494.54, -58880.24, -93335.88, -116670.11, -103748.63, 0.000, 0.000, 0.000, 18:40:34.093
189, -6440.23, -6518.82, -6557.47, -6495.24, -58880.46, -93336.26, -116670.34, -103748.63, 0.000, 0.000, 0.000, 18:40:34.093
190, -6439.25, -6518.15, -6556.95, -6494.99, -58880.30, -93336.43, -116670.52, -103749.20, 0.036, 0.000, 0.980, 18:40:34.093
191, -6433.61, -6513.86, -6553.67, -6492.00, -58878.00, -93334.11, -116668.50, -103747.74, 0.000, 0.000, 0.000, 18:40:34.094
192, -6429.59, -6510.44, -6550.83, -6489.09, -58875.63, -93331.38, -116666.00, -103745.10, 0.000, 0.000, 0.000, 18:40:34.094
193, -6435.13, -6514.73, -6554.13, -6492.02, -58878.23, -93333.69, -116668.19, -103746.71, 0.000, 0.000, 0.000, 18:40:34.094
194, -6440.59, -6519.24, -6557.73, -6495.62, -58881.45, -93337.10, -116671.41, -103749.58, 0.000, 0.000, 0.000, 18:40:34.094
195, -6438.22, -6517.25, -6555.86, -6494.08, -58879.86, -93335.95, -116670.23, -103748.75, 0.000, 0.000, 0.000, 18:40:34.094
196, -6431.69, -6512.09, -6551.79, -6490.32, -58876.77, -93332.77, -116667.48, -103746.47, 0.000, 0.000, 0.000, 18:40:34.094
197, -6429.86, -6510.77, -6551.16, -6489.43, -58876.55, -93332.14, -116667.12, -103746.06, 0.000, 0.000, 0.000, 18:40:34.094
198, -6435.67, -6515.33, -6554.81, -6492.58, -58879.45, -93334.73, -116669.42, -103747.88, 0.000, 0.000, 0.000, 18:40:34.094
199, -6440.16, -6518.98, -6557.42, -6495.13, -58881.60, -93337.13, -116671.50, -103749.80, 0.000, 0.000, 0.000, 18:40:34.095
200, -6438.53, -6517.68, -6556.08, -6494.23, -58880.80, -93336.61, -116671.16, -103749.62, 0.046, -0.002, 0.984, 18:40:34.095
201, -6430.91, -6511.31, -6550.74, -6489.31, -58876.53, -93332.21, -116667.23, -103746.24, 0.000, 0.000, 0.000, 18:40:34.095
202, -6427.44, -6508.38, -6548.64, -6486.95, -58874.70, -93330.09, -116665.24, -103744.34, 0.000, 0.000, 0.000, 18:40:34.095
203, -6436.34, -6515.98, -6555.45, -6493.27, -58880.75, -93335.95, -116670.88, -103749.28, 0.000, 0.000, 0.000, 18:40:34.095
204, -6440.12, -6518.80, -6557.26, -6495.04, -58882.11, -93337.55, -116672.16, -103750.42, 0.000, 0.000, 0.000, 18:40:34.095
205, -6436.21, -6515.24, -6553.73, -6491.93, -58879.03, -93334.65, -116669.30, -103747.97, 0.000, 0.000, 0.000, 18:40:34.095
206, -6429.05, -6509.52, -6548.99, -6487.48, -58875.25, -93330.84, -116665.95, -103745.04, 0.000, 0.000, 0.000, 18:40:34.096
207, -6426.04, -6507.00, -6547.12, -6485.43, -58873.80, -93329.02, -116664.41, -103743.52, 0.000, 0.000, 0.000, 18:40:34.096
208, -6433.41, -6513.10, -6552.32, -6490.25, -58878.29, -93333.17, -116668.34, -103746.84, 0.000, 0.000, 0.000, 18:40:34.096
209, -6440.34, -6519.09, -6557.40, -6495.31, -58883.01, -93338.04, -116673.02, -103751.20, 0.000, 0.000, 0.000, 18:40:34.096
210, -6440.41, -6519.53, -6557.91, -6496.20, -58884.02, -93339.34, -116674.38, -103752.84, 0.046, -0.002, 0.978, 18:40:34.096
211, -6432.97, -6513.34, -6552.91, -6491.44, -58879.90, -93335.16, -116670.56, -103749.64, 0.000, 0.000, 0.000, 18:40:34.096
212, -6430.73, -6511.85, -6552.08, -6490.43, -58879.37, -93334.34, -116669.91, -103749.10, 0.000, 0.000, 0.000, 18:40:34.097
213, -6437.73, -6517.43, -6556.86, -6494.75, -58883.30, -93338.11, -116673.40, -103751.92, 0.000, 0.000, 0.000, 18:40:34.097
214, -6440.48, -6519.20, -6557.67, -6495.51, -58883.61, -93338.65, -116673.76, -103752.01, 0.000, 0.000, 0.000, 18:40:34.097
215, -6438.51, -6517.57, -6556.12, -6494.39, -58882.52, -93337.80, -116673.02, -103751.61, 0.000, 0.000, 0.000, 18:40:34.097
216, -6431.74, -6512.11, -6551.68, -6490.30, -58879.10, -93334.29, -116669.89, -103749.04, 0.000, 0.000, 0.000, 18:40:34.097
217, -6428.85, -6509.88, -6550.02, -6488.42, -58877.89, -93332.66, -116668.52, -103747.65, 0.000, 0.000, 0.000, 18:40:34.097
218, -6436.16, -6515.82, -6555.12, -6493.07, -58882.25, -93336.73, -116672.37, -103750.80, 0.000, 0.000, 0.000, 18:40:34.097
219, -6443.23, -6521.90, -6560.30, -6498.26, -58887.10, -93341.71, -116677.06, -103755.41, 0.000, 0.000, 0.000, 18:40:34.098
220, -6439.78, -6518.86, -6557.31, -6495.60, -58884.39, -93339.30, -116674.80, -103753.42, 0.040, -0.002, 0.978, 18:40:34.098
221, -6432.25, -6512.67, -6552.23, -6490.83, -58880.21, -93335.05, -116671.01, -103750.11, 0.000, 0.000, 0.000, 18:40:34.098
222, -6429.41, -6510.33, -6550.69, -6489.02, -58879.12, -93333.62, -116669.71, -103748.81, 0.000, 0.000, 0.000, 18:40:34.098
223, -6438.02, -6517.57, -6557.04, -6494.99, -58884.64, -93338.96, -116674.85, -103753.27, 0.000, 0.000, 0.000, 18:40:34.098
224, -6443.23, -6521.93, -6560.28, -6498.23, -58887.43, -93341.93, -116677.64, -103755.85, 0.000, 0.000, 0.000, 18:40:34.098
225, -6439.02, -6518.24, -6556.59, -6494.92, -58884.15, -93338.87, -116674.78, -103753.35, 0.000, 0.000, 0.000, 18:40:34.098
226, -6429.26, -6509.81, -6549.24, -6487.97, -58877.89, -93332.52, -116668.77, -103747.90, 0.000, 0.000, 0.000, 18:40:34.099
227, -6424.43, -6505.39, -6545.55, -6484.08, -58874.65, -93328.92, -116665.30, -103744.55, 0.000, 0.000, 0.000, 18:40:34.099
228, -6432.81, -6512.38, -6551.77, -6489.58, -58879.90, -93333.93, -116670.07, -103748.59, 0.000, 0.000, 0.000, 18:40:34.099
229, -6438.35, -6517.03, -6555.54, -6493.34, -58883.19, -93337.35, -116673.33, -103751.63, 0.000, 0.000, 0.000, 18:40:34.099
230, -6435.83, -6514.95, -6553.42, -6491.55, -58881.51, -93335.92, -116672.13, -103750.73, 0.042, 0.000, 0.976, 18:40:34.099
231, -6431.27, -6511.87, -6551.32, -6489.96, -58880.46, -93334.87, -116671.38, -103750.63, 0.000, 0.000, 0.000, 18:40:34.099
232, -6427.89, -6509.07, -6549.15, -6487.71, -58878.79, -93332.74, -116669.48, -103748.66, 0.000, 0.000, 0.000, 18:40:34.099
233, -6434.60, -6514.46, -6553.62, -6491.71, -58882.36, -93336.14, -116672.68, -103751.09, 0.000, 0.000, 0.000, 18:40:34.099
234, -6441.64, -6520.58, -6558.72, -6496.82, -58886.99, -93341.09, -116677.31, -103755.54, 0.000, 0.000, 0.000, 18:40:34.100
235, -6440.25, -6519.58, -6557.85, -6496.22, -58886.45, -93340.86, -116677.16, -103755.72, 0.000, 0.000, 0.000, 18:40:34.100
236, -6433.79, -6514.68, -6553.91, -6492.62, -58883.59, -93337.95, -116674.58, -103753.80, 0.000, 0.000, 0.000, 18:40:34.100
237, -6428.88, -6510.35, -6550.22, -6488.87, -58880.33, -93334.31, -116671.14, -103750.42, 0.000, 0.000, 0.000, 18:40:34.100
238, -6433.44, -6513.45, -6552.35, -6490.43, -58881.73, -93335.43, -116671.99, -103750.47, 0.000, 0.000, 0.000, 18:40:34.100
239, -6437.75, -6516.70, -6554.72, -6492.73, -58883.55, -93337.51, -116673.89, -103752.13, 0.000, 0.000, 0.000, 18:40:34.101
240, -6438.80, -6518.08, -6556.19, -6494.66, -58885.49, -93339.70, -116676.19, -103754.80, 0.040, 0.000, 0.978, 18:40:34.101
241, -6434.33, -6515.00, -6554.29, -6493.00, -58884.64, -93338.67, -116675.63, -103754.83, 0.000, 0.000, 0.000, 18:40:34.101
242, -6431.24, -6512.58, -6552.57, -6491.10, -58883.30, -93336.91, -116674.02, -103753.30, 0.000, 0.000, 0.000, 18:40:34.565
243, -6438.87, -6518.86, -6557.87, -6495.91, -58887.73, -93341.24, -116678.02, -103756.66, 0.000, 0.000, 0.000, 18:40:34.565
244, -6443.38, -6522.31, -6560.44, -6498.39, -58889.67, -93343.50, -116680.10, -103758.45, 0.000, 0.000, 0.000, 18:40:34.565
245, -6440.10, -6519.44, -6557.60, -6495.89, -58887.30, -93341.26, -116678.13, -103756.70, 0.000, 0.000, 0.000, 18:40:34.565
246, -6430.84, -6511.64, -6550.80, -6489.54, -58881.62, -93335.54, -116672.66, -103751.92, 0.000, 0.000, 0.000, 18:40:34.565
247, -6426.89, -6508.22, -6548.03, -6486.74, -58879.23, -93332.79, -116670.09, -103749.44, 0.000, 0.000, 0.000, 18:40:34.565
248, -6434.89, -6514.75, -6553.73, -6491.86, -58884.08, -93337.38, -116674.42, -103753.15, 0.000, 0.000, 0.000, 18:40:34.566
249, -6440.39, -6519.27, -6557.33, -6495.51, -58887.23, -93340.77, -116677.60, -103755.99, 0.000, 0.000, 0.000, 18:40:34.566
250, -6437.62, -6517.03, -6555.12, -6493.65, -58885.47, -93339.25, -116676.28, -103754.94, 0.040, 0.000, 0.982, 18:40:34.566
251, -6426.95, -6507.80, -6546.98, -6485.87, -58878.38, -93332.21, -116669.46, -103748.81, 0.000, 0.000, 0.000, 18:40:34.566
252, -6423.49, -6504.87, -6544.86, -6483.53, -58876.55, -93330.00, -116667.50, -103746.89, 0.000, 0.000, 0.000, 18:40:34.566
253, -6433.88, -6513.72, -6552.88, -6490.88, -58883.70, -93336.84, -116674.13, -103752.81, 0.000, 0.000, 0.000, 18:40:34.566
254, -6439.96, -6518.75, -6556.97, -6494.95, -58887.28, -93340.59, -116677.80, -103756.13, 0.000, 0.000, 0.000, 18:40:34.566
255, -6438.96, -6518.19, -6556.48, -6494.86, -58887.28, -93340.79, -116678.13, -103756.80, 0.000, 0.000, 0.000, 18:40:34.567
0, -6432.43, -6513.23, -6552.66, -6491.33, -58884.42, -93337.95, -116675.50, -103754.91, 0.000, 0.000, 0.000, 18:40:34.567
1, -6429.95, -6511.29, -6551.32, -6489.94, -58883.52, -93336.70, -116674.38, -103753.82, 0.000, 0.000, 0.000, 18:40:34.567
2, -6435.92, -6515.78, -6554.89, -6492.98, -58886.23, -93339.20, -116676.68, -103755.27, 0.000, 0.000, 0.000, 18:40:34.567
3, -6443.40, -6522.33, -6560.39, -6498.52, -58891.30, -93344.39, -116681.73, -103760.08, 0.000, 0.000, 0.000, 18:40:34.567
4, -6441.42, -6520.83, -6558.98, -6497.41, -58890.32, -93343.63, -116681.22, -103759.90, 0.000, 0.000, 0.000, 18:40:34.568
5, -6432.14, -6513.03, -6552.28, -6491.04, -58884.68, -93337.95, -116675.81, -103755.12, 0.042, -0.004, 0.984, 18:40:34.568
6, -6428.88, -6510.21, -6550.27, -6488.91, -58883.01, -93336.05, -116673.98, -103753.30, 0.000, 0.000, 0.000, 18:40:34.568
7, -6435.98, -6515.80, -6554.74, -6492.89, -58886.70, -93339.48, -116677.20, -103755.84, 0.000, 0.000, 0.000, 18:40:34.568
8, -6444.03, -6522.84, -6560.84, -6498.90, -58892.29, -93345.11, -116682.83, -103761.20, 0.000, 0.000, 0.000, 18:40:34.568
9, -6445.01, -6524.23, -6562.36, -6500.94, -58894.25, -93347.38, -116685.22, -103763.88, 0.000, 0.000, 0.000, 18:40:34.568
10, -6434.80, -6515.65, -6554.87, -6493.87, -58887.70, -93341.02, -116679.03, -103758.34, 0.000, 0.000, 0.000, 18:40:34.569
11, -6431.40, -6512.83, -6552.59, -6491.37, -58885.91, -93338.67, -116676.88, -103756.30, 0.000, 0.000, 0.000, 18:40:34.569
12, -6439.94, -6519.82, -6558.78, -6496.94, -58891.21, -93343.67, -116681.73, -103760.39, 0.000, 0.000, 0.000, 18:40:34.569
13, -6446.20, -6525.06, -6563.19, -6501.25, -58895.01, -93347.84, -116685.60, -103763.92, 0.000, 0.000, 0.000, 18:40:34.569
14, -6443.27, -6522.62, -6560.95, -6499.24, -58893.09, -93346.18, -116683.99, -103762.74, 0.000, 0.000, 0.000, 18:40:34.569
15, -6436.41, -6517.14, -6556.57, -6495.26, -58889.74, -93342.85, -116680.95, -103760.41, 0.040, -0.004, 0.986, 18:40:34.569
16, -6433.44, -6514.71, -6554.87, -6493.32, -58888.35, -93341.04, -116679.37, -103758.83, 0.000, 0.000, 0.000, 18:40:34.569
17, -6439.65, -6519.40, -6558.65, -6496.51, -58891.28, -93343.59, -116681.84, -103760.48, 0.000, 0.000, 0.000, 18:40:34.570
18, -6443.38, -6522.15, -6560.37, -6498.28, -58892.55, -93345.06, -116683.26, -103761.40, 0.000, 0.000, 0.000, 18:40:34.570
19, -6440.88, -6520.05, -6558.38, -6496.76, -58891.10, -93343.83, -116682.05, -103760.55, 0.000, 0.000, 0.000, 18:40:34.570
20, -6434.49, -6515.11, -6554.56, -6493.34, -58888.30, -93341.04, -116679.55, -103758.83, 0.000, 0.000, 0.000, 18:40:34.570
21, -6431.22, -6512.36, -6552.55, -6490.97, -58886.54, -93338.96, -116677.58, -103757.04, 0.000, 0.000, 0.000, 18:40:34.570
22, -6439.98, -6519.58, -6558.98, -6496.78, -58892.02, -93344.19, -116682.56, -103761.29, 0.000, 0.000, 0.000, 18:40:34.570
23, -6446.40, -6525.08, -6563.46, -6501.21, -58896.06, -93348.39, -116686.65, -103765.09, 0.000, 0.000, 0.000, 18:40:34.570
24, -6442.38, -6521.55, -6559.95, -6498.14, -58893.11, -93345.51, -116684.02, -103762.77, 0.000, 0.000, 0.000, 18:40:34.570
25, -6431.69, -6512.43, -6551.90, -6490.50, -58886.21, -93338.58, -116677.24, -103756.80, 0.040, -0.006, 0.984, 18:40:34.570
26, -6429.14, -6510.53, -6550.51, -6489.02, -58885.16, -93337.23, -116676.05, -103755.66, 0.000, 0.000, 0.000, 18:40:34.571
27, -6438.17, -6518.01, -6557.06, -6494.99, -58890.92, -93342.58, -116681.29, -103760.02, 0.000, 0.000, 0.000, 18:40:34.571
28, -6443.16, -6522.02, -6560.15, -6497.99, -58893.52, -93345.40, -116683.95, -103762.43, 0.000, 0.000, 0.000, 18:40:34.571
29, -6441.46, -6520.65, -6558.92, -6497.29, -58892.75, -93344.95, -116683.66, -103762.45, 0.000, 0.000, 0.000, 18:40:34.571
30, -6432.03, -6512.85, -6552.12, -6490.88, -58886.99, -93339.23, -116678.16, -103757.76, 0.000, 0.000, 0.000, 18:40:34.571
31, -6428.94, -6510.33, -6550.16, -6488.73, -58885.42, -93337.17, -116676.37, -103755.99, 0.000, 0.000, 0.000, 18:40:34.571
32, -6435.45, -6515.29, -6554.02, -6492.11, -58888.42, -93340.08, -116679.01, -103757.69, 0.000, 0.000, 0.000, 18:40:34.571
33, -6436.74, -6515.58, -6553.35, -6491.42, -58887.28, -93339.14, -116677.91, -103756.28, 0.000, 0.000, 0.000, 18:40:34.571
34, -6436.63, -6515.89, -6553.93, -6492.27, -58888.21, -93340.48, -116679.30, -103758.05, 0.000, 0.000, 0.000, 18:40:34.572
35, -6429.86, -6510.75, -6549.89, -6488.64, -58885.27, -93337.46, -116676.51, -103755.95, 0.038, -0.002, 0.980, 18:40:34.572
36, -6425.17, -6506.59, -6546.33, -6484.78, -58882.14, -93333.77, -116672.95, -103752.46, 0.000, 0.000, 0.000, 18:40:34.572
37, -6435.16, -6514.97, -6553.75, -6491.55, -58888.64, -93340.05, -116679.12, -103757.82, 0.000, 0.000, 0.000, 18:40:34.572
38, -6443.69, -6522.44, -6560.28, -6498.19, -58894.72, -93346.45, -116685.42, -103763.77, 0.000, 0.000, 0.000, 18:40:34.572
39, -6441.19, -6520.56, -6558.54, -6496.74, -58893.47, -93345.40, -116684.39, -103763.14, 0.000, 0.000, 0.000, 18:40:34.572
40, -6431.00, -6511.91, -6550.89, -6489.63, -58886.96, -93338.89, -116678.09, -103757.62, 0.000, 0.000, 0.000, 18:40:34.572
41, -6427.51, -6508.94, -6548.48, -6487.06, -58884.82, -93336.39, -116675.81, -103755.37, 0.000, 0.000, 0.000, 18:40:34.572
42, -6437.41, -6517.28, -6555.90, -6493.87, -58891.30, -93342.54, -116681.82, -103760.66, 0.000, 0.000, 0.000, 18:40:34.573
43, -6443.76, -6522.71, -6560.37, -6498.41, -58895.39, -93346.85, -116685.91, -103764.59, 0.000, 0.000, 0.000, 18:40:34.573
44, -6441.95, -6521.26, -6559.23, -6497.56, -58894.59, -93346.41, -116685.63, -103764.53, 0.000, 0.000, 0.000, 18:40:34.573
45, -6433.84, -6514.68, -6553.78, -6492.47, -58890.23, -93342.00, -116681.47, -103761.09, 0.036, 0.004, 0.978, 18:40:34.573
46, -6432.88, -6514.28, -6553.93, -6492.47, -58890.72, -93342.06, -116681.76, -103761.35, 0.000, 0.000, 0.000, 18:40:34.573
47, -6439.58, -6519.47, -6558.16, -6496.11, -58893.98, -93345.11, -116684.51, -103763.34, 0.000, 0.000, 0.000, 18:40:34.573
48, -6443.49, -6522.40, -6560.26, -6498.14, -58895.59, -93346.89, -116686.12, -103764.70, 0.000, 0.000, 0.000, 18:40:34.573
49, -6442.42, -6521.93, -6559.83, -6498.10, -58895.70, -93347.23, -116686.56, -103765.51, 0.000, 0.000, 0.000, 18:40:34.573
50, -6434.20, -6515.31, -6554.22, -6492.94, -58891.19, -93342.65, -116682.38, -103761.94, 0.000, 0.000, 0.000, 18:40:34.574
51, -6428.27, -6509.79, -6549.31, -6487.79, -58886.65, -93337.69, -116677.63, -103757.15, 0.000, 0.000, 0.000, 18:40:34.574
52, -6437.41, -6517.32, -6555.88, -6493.83, -58892.31, -93343.14, -116682.83, -103761.69, 0.000, 0.000, 0.000, 18:40:34.574
53, -6443.31, -6522.19, -6559.81, -6497.79, -58895.82, -93346.85, -116686.38, -103764.88, 0.000, 0.000, 0.000, 18:40:34.574
54, -6440.90, -6520.36, -6558.09, -6496.36, -58894.54, -93345.89, -116685.60, -103764.33, 0.000, 0.000, 0.000, 18:40:34.574
55, -6432.99, -6513.99, -6552.84, -6491.46, -58890.45, -93341.69, -116681.60, -103761.17, 0.038, -0.002, 0.980, 18:40:34.574
56, -6429.19, -6510.71, -6550.18, -6488.69, -58888.17, -93338.96, -116678.96, -103758.63, 0.000, 0.000, 0.000, 18:40:34.575
57, -6437.57, -6517.52, -6555.97, -6494.01, -58893.02, -93343.67, -116683.52, -103762.34, 0.000, 0.000, 0.000, 18:40:34.575
58, -6442.82, -6521.84, -6559.23, -6497.25, -58895.88, -93346.83, -116686.56, -103765.09, 0.000, 0.000, 0.000, 18:40:34.575
59, -6438.91, -6518.46, -6556.03, -6494.43, -58893.07, -93344.28, -116684.17, -103763.12, 0.000, 0.000, 0.000, 18:40:34.575
60, -6431.67, -6512.69, -6551.45, -6490.23, -58889.63, -93340.70, -116680.93, -103760.46, 0.000, 0.000, 0.000, 18:40:34.575
61, -6428.27, -6509.59, -6548.97, -6487.59, -58887.46, -93338.11, -116678.43, -103758.11, 0.000, 0.000, 0.000, 18:40:34.575
62, -6438.62, -6518.48, -6556.84, -6494.84, -58894.32, -93344.84, -116684.98, -103763.90, 0.000, 0.000, 0.000, 18:40:34.575
63, -6445.15, -6524.03, -6561.51, -6499.33, -58898.50, -93349.24, -116689.11, -103767.79, 0.000, 0.000, 0.000, 18:40:34.575
64, -6441.35, -6520.72, -6558.36, -6496.62, -58895.97, -93346.83, -116686.90, -103765.91, 0.000, 0.000, 0.000, 18:40:34.575
65, -6431.69, -6512.60, -6551.43, -6490.16, -58890.05, -93340.91, -116681.29, -103760.91, 0.040, -0.002, 0.978, 18:40:34.576
66, -6429.97, -6511.33, -6550.76, -6489.43, -58889.67, -93340.23, -116680.80, -103760.46, 0.000, 0.000, 0.000, 18:40:34.576
67, -6439.29, -6519.09, -6557.60, -6495.69, -58895.50, -93345.84, -116686.32, -103765.09, 0.000, 0.000, 0.000, 18:40:34.576
68, -6447.11, -6526.08, -6563.61, -6501.70, -58901.07, -93351.56, -116691.88, -103770.41, 0.000, 0.000, 0.000, 18:40:34.576
69, -6443.05, -6522.55, -6560.26, -6498.68, -58898.32, -93348.93, -116689.38, -103768.26, 0.000, 0.000, 0.000, 18:40:34.576
70, -6433.21, -6513.99, -6553.02, -6491.75, -58892.06, -93342.70, -116683.39, -103762.92, 0.000, 0.000, 0.000, 18:40:34.576
71, -6431.11, -6512.36, -6551.88, -6490.39, -58891.17, -93341.53, -116682.38, -103761.87, 0.000, 0.000, 0.000, 18:40:34.576
72, -6441.79, -6521.48, -6559.99, -6498.05, -58898.43, -93348.48, -116689.11, -103767.95, 0.000, 0.000, 0.000, 18:40:34.577
73, -6449.39, -6528.09, -6565.65, -6503.73, -58903.75, -93354.02, -116694.50, -103773.11, 0.000, 0.000, 0.000, 18:40:34.577
74, -6447.11, -6526.35, -6564.08, -6502.57, -58902.70, -93353.27, -116693.76, -103772.69, 0.000, 0.000, 0.000, 18:40:34.577
75, -6437.12, -6518.01, -6556.77, -6495.69, -58896.38, -93346.89, -116687.77, -103767.32, 0.042, -0.002, 0.980, 18:40:34.577
76, -6433.55, -6514.97, -6554.29, -6492.87, -58894.21, -93344.28, -116685.29, -103764.95, 0.000, 0.000, 0.000, 18:40:34.577
77, -6442.29, -6522.22, -6560.57, -6498.52, -58899.62, -93349.51, -116690.12, -103769.13, 0.000, 0.000, 0.000, 18:40:34.577
78, -6448.59, -6527.42, -6564.89, -6502.81, -58903.53, -93353.63, -116694.12, -103772.82, 0.000, 0.000, 0.000, 18:40:34.577
79, -6445.73, -6525.06, -6562.74, -6500.96, -58901.70, -93352.03, -116692.80, -103771.81, 0.000, 0.000, 0.000, 18:40:34.577
80, -6437.50, -6518.37, -6557.17, -6495.80, -58897.25, -93347.52, -116688.57, -103768.30, 0.000, 0.000, 0.000, 18:40:34.578
81, -6435.54, -6516.96, -6556.24, -6494.72, -58896.75, -93346.58, -116687.75, -103767.48, 0.000, 0.000, 0.000, 18:40:34.578
82, -6443.43, -6523.36, -6561.62, -6499.51, -58901.05, -93350.76, -116691.75, -103770.67, 0.000, 0.000, 0.000, 18:40:34.578
83, -6448.50, -6527.42, -6564.84, -6502.68, -58903.75, -93353.64, -116694.56, -103773.20, 0.000, 0.000, 0.000, 18:40:34.578
84, -6444.37, -6523.74, -6561.38, -6499.69, -58900.80, -93350.90, -116691.95, -103770.92, 0.000, 0.000, 0.000, 18:40:34.578
85, -6436.54, -6517.41, -6556.21, -6494.95, -58896.75, -93346.78, -116688.09, -103767.68, 0.042, -0.002, 0.978, 18:40:34.578
86, -6432.32, -6513.59, -6552.91, -6491.39, -58893.74, -93343.50, -116684.87, -103764.46, 0.000, 0.000, 0.000, 18:40:34.578
87, -6441.12, -6520.85, -6559.05, -6497.09, -58899.01, -93348.62, -116689.80, -103768.55, 0.000, 0.000, 0.000, 18:40:34.578
88, -6446.49, -6525.17, -6562.54, -6500.54, -58902.10, -93351.86, -116692.95, -103771.48, 0.000, 0.000, 0.000, 18:40:34.578
89, -6443.38, -6522.62, -6560.26, -6498.61, -58900.24, -93350.27, -116691.48, -103770.36, 0.000, 0.000, 0.000, 18:40:34.579
90, -6434.66, -6515.56, -6554.31, -6493.07, -58895.32, -93345.28, -116686.72, -103766.43, 0.000, 0.000, 0.000, 18:40:34.579
91, -6431.22, -6512.45, -6551.70, -6490.21, -58892.98, -93342.67, -116684.23, -103763.92, 0.000, 0.000, 0.000, 18:40:34.579
92, -6439.29, -6518.91, -6557.15, -6495.15, -58897.56, -93347.01, -116688.48, -103767.27, 0.000, 0.000, 0.000, 18:40:34.579
93, -6444.19, -6522.89, -6560.35, -6498.26, -58900.22, -93349.84, -116691.21, -103769.78, 0.000, 0.000, 0.000, 18:40:34.579
94, -6443.47, -6522.78, -6560.44, -6498.75, -58900.80, -93350.63, -116692.20, -103771.19, 0.000, 0.000, 0.000, 18:40:34.579
95, -6435.16, -6516.02, -6554.81, -6493.47, -58896.22, -93346.07, -116687.88, -103767.57, 0.000, 0.000, 0.000, 18:40:34.579
96, -6432.21, -6513.54, -6552.77, -6491.15, -58894.57, -93344.01, -116685.87, -103765.51, 0.042, -0.002, 0.972, 18:40:34.579
97, -6440.97, -6520.70, -6558.92, -6496.80, -58899.84, -93348.95, -116690.72, -103769.58, 0.000, 0.000, 0.000, 18:40:34.580
98, -6448.61, -6527.42, -6564.73, -6502.64, -58905.14, -93354.56, -116696.22, -103774.83, 0.000, 0.000, 0.000, 18:40:34.580
99, -6446.15, -6525.73, -6563.19, -6501.43, -58904.13, -93353.78, -116695.52, -103774.45, 0.000, 0.000, 0.000, 18:40:34.580
100, -6435.29, -6516.45, -6555.01, -6493.70, -58897.07, -93346.60, -116688.73, -103768.33, 0.000, 0.000, 0.000, 18:40:34.580
101, -6431.09, -6512.52, -6551.68, -6490.16, -58894.03, -93343.19, -116685.45, -103764.93, 0.000, 0.000, 0.000, 18:40:34.580
102, -6440.57, -6520.34, -6558.47, -6496.36, -58899.88, -93348.84, -116690.85, -103769.63, 0.000, 0.000, 0.000, 18:40:34.580
103, -6446.33, -6525.08, -6562.38, -6500.27, -58903.37, -93352.44, -116694.34, -103772.91, 0.000, 0.000, 0.000, 18:40:34.580
104, -6441.93, -6521.19, -6558.69, -6497.00, -58900.22, -93349.58, -116691.63, -103770.48, 0.000, 0.000, 0.000, 18:40:34.580
105, -6434.15, -6515.00, -6553.55, -6492.33, -58896.22, -93345.55, -116687.88, -103767.45, 0.000, 0.000, 0.000, 18:40:34.581
106, -6434.15, -6515.33, -6554.58, -6493.23, -58897.54, -93346.42, -116688.87, -103768.55, 0.044, -0.004, 0.978, 18:40:35.047
107, -6440.16, -6519.89, -6558.07, -6496.13, -58900.13, -93348.75, -116690.97, -103769.80, 0.000, 0.000, 0.000, 18:40:35.048
108, -6445.91, -6524.72, -6562.05, -6500.09, -58903.66, -93352.55, -116694.70, -103773.18, 0.000, 0.000, 0.000, 18:40:35.048
109, -6444.41, -6523.67, -6561.38, -6499.71, -58903.39, -93352.55, -116694.85, -103773.70, 0.000, 0.000, 0.000, 18:40:35.048
110, -6435.29, -6516.23, -6554.94, -6493.72, -58898.12, -93347.16, -116689.76, -103769.40, 0.000, 0.000, 0.000, 18:40:35.048
111, -6431.58, -6512.99, -6552.21, -6490.75, -58895.64, -93344.37, -116686.98, -103766.61, 0.000, 0.000, 0.000, 18:40:35.048
112, -6440.57, -6520.41, -6558.58, -6496.62, -58901.14, -93349.58, -116692.02, -103770.97, 0.000, 0.000, 0.000, 18:40:35.048
113, -6447.56, -6526.31, -6563.75, -6501.74, -58905.85, -93354.49, -116696.84, -103775.37, 0.000, 0.000, 0.000, 18:40:35.048
114, -6444.88, -6524.23, -6561.94, -6500.36, -58904.54, -93353.42, -116695.91, -103774.81, 0.000, 0.000, 0.000, 18:40:35.049
115, -6436.52, -6517.46, -6556.21, -6495.06, -58899.88, -93348.80, -116691.48, -103771.16, 0.000, 0.000, 0.000, 18:40:35.049
116, -6433.97, -6515.22, -6554.47, -6493.05, -58898.39, -93346.96, -116689.83, -103769.55, 0.046, -0.002, 0.976, 18:40:35.049
117, -6442.26, -6521.95, -6560.19, -6498.30, -58903.24, -93351.56, -116694.25, -103773.13, 0.000, 0.000, 0.000, 18:40:35.049
118, -6446.98, -6525.75, -6563.19, -6501.25, -58905.72, -93354.27, -116696.80, -103775.34, 0.000, 0.000, 0.000, 18:40:35.049
119, -6444.03, -6523.45, -6561.00, -6499.48, -58904.13, -93352.88, -116695.55, -103774.48, 0.000, 0.000, 0.000, 18:40:35.049
120, -6433.97, -6514.86, -6553.58, -6492.49, -58897.76, -93346.38, -116689.38, -103769.13, 0.000, 0.000, 0.000, 18:40:35.049
121, -6431.76, -6512.90, -6552.21, -6490.88, -58896.66, -93344.86, -116687.93, -103767.70, 0.000, 0.000, 0.000, 18:40:35.049
122, -6441.12, -6520.67, -6558.98, -6497.12, -58902.57, -93350.63, -116693.45, -103772.38, 0.000, 0.000, 0.000, 18:40:35.049
123, -6446.18, -6524.94, -6562.49, -6500.51, -58905.59, -93353.82, -116696.58, -103775.19, 0.000, 0.000, 0.000, 18:40:35.050
124, -6443.45, -6522.82, -6560.53, -6499.08, -58904.22, -93352.68, -116695.64, -103774.67, 0.000, 0.000, 0.000, 18:40:35.050
125, -6433.48, -6514.24, -6553.11, -6492.13, -58897.85, -93346.38, -116689.54, -103769.24, 0.000, 0.000, 0.000, 18:40:35.050
126, -6431.67, -6512.76, -6552.12, -6490.83, -58897.09, -93345.27, -116688.53, -103768.22, 0.050, -0.004, 0.976, 18:40:35.050
127, -6441.35, -6520.88, -6559.23, -6497.41, -58903.28, -93351.27, -116694.30, -103773.22, 0.000, 0.000, 0.000, 18:40:35.050
128, -6448.05, -6526.60, -6564.19, -6502.35, -58907.82, -93355.97, -116698.84, -103777.60, 0.000, 0.000, 0.000, 18:40:35.050
129, -6443.47, -6522.51, -6560.44, -6498.99, -58904.64, -93352.86, -116695.95, -103775.08, 0.000, 0.000, 0.000, 18:40:35.050
130, -6434.87, -6515.67, -6554.67, -6493.56, -58899.86, -93348.19, -116691.55, -103771.37, 0.000, 0.000, 0.000, 18:40:35.050
131, -6430.98, -6512.20, -6551.63, -6490.25, -58897.05, -93345.04, -116688.38, -103768.15, 0.000, 0.000, 0.000, 18:40:35.051
132, -6439.14, -6518.64, -6557.06, -6495.22, -58901.52, -93349.33, -116692.46, -103771.37, 0.000, 0.000, 0.000, 18:40:35.051
133, -6444.92, -6523.40, -6561.15, -6499.19, -58905.14, -93353.17, -116696.24, -103774.85, 0.000, 0.000, 0.000, 18:40:35.051
134, -6441.44, -6520.54, -6558.49, -6496.91, -58903.08, -93351.30, -116694.52, -103773.67, 0.000, 0.000, 0.000, 18:40:35.051
135, -6433.14, -6513.90, -6552.91, -6491.82, -58898.61, -93346.78, -116690.30, -103770.16, 0.000, 0.000, 0.000, 18:40:35.051
136, -6429.21, -6510.30, -6549.75, -6488.42, -58895.68, -93343.50, -116687.14, -103766.80, 0.048, -0.002, 0.978, 18:40:35.051
137, -6439.16, -6518.77, -6557.15, -6495.26, -58902.14, -93349.78, -116693.18, -103771.99, 0.000, 0.000, 0.000, 18:40:35.052
138, -6446.38, -6525.10, -6562.56, -6500.83, -58907.26, -93355.12, -116698.43, -103776.95, 0.000, 0.000, 0.000, 18:40:35.052
139, -6445.04, -6524.34, -6561.98, -6500.71, -58907.33, -93355.23, -116698.81, -103777.83, 0.000, 0.000, 0.000, 18:40:35.052
140, -6435.25, -6516.20, -6555.03, -6494.01, -58901.34, -93349.20, -116693.00, -103772.77, 0.000, 0.000, 0.000, 18:40:35.052
141, -6431.87, -6513.07, -6552.46, -6491.04, -58898.79, -93346.38, -116690.30, -103769.94, 0.000, 0.000, 0.000, 18:40:35.052
142, -6439.58, -6519.15, -6557.49, -6495.51, -58902.97, -93350.29, -116694.05, -103772.89, 0.000, 0.000, 0.000, 18:40:35.052
143, -6445.64, -6524.27, -6561.73, -6499.89, -58906.93, -93354.45, -116698.09, -103776.82, 0.000, 0.000, 0.000, 18:40:35.052
144, -6442.58, -6521.93, -6559.61, -6498.12, -58905.38, -93353.02, -116696.87, -103775.99, 0.000, 0.000, 0.000, 18:40:35.053
145, -6430.28, -6511.33, -6550.16, -6488.98, -58896.87, -93344.62, -116688.75, -103768.46, 0.000, 0.000, 0.000, 18:40:35.053
146, -6429.77, -6511.00, -6550.33, -6488.89, -58897.16, -93344.63, -116688.89, -103768.57, 0.046, -0.002, 0.980, 18:40:35.053
147, -6437.39, -6517.01, -6555.25, -6493.38, -58901.25, -93348.57, -116692.46, -103771.45, 0.000, 0.000, 0.000, 18:40:35.053
148, -6441.75, -6520.58, -6557.91, -6496.11, -58903.66, -93351.19, -116694.85, -103773.71, 0.000, 0.000, 0.000, 18:40:35.053
149, -6441.01, -6520.43, -6558.18, -6496.65, -58904.38, -93352.03, -116695.99, -103775.15, 0.000, 0.000, 0.000, 18:40:35.053
150, -6432.59, -6513.43, -6552.46, -6491.28, -58899.66, -93347.16, -116691.50, -103771.30, 0.000, 0.000, 0.000, 18:40:35.054
151, -6429.10, -6510.33, -6549.78, -6488.24, -58897.16, -93344.32, -116688.71, -103768.40, 0.000, 0.000, 0.000, 18:40:35.054
152, -6440.79, -6520.43, -6558.81, -6496.80, -58905.32, -93352.35, -116696.38, -103775.41, 0.000, 0.000, 0.000, 18:40:35.054
153, -6448.50, -6527.29, -6564.84, -6502.93, -58911.02, -93358.23, -116702.19, -103780.91, 0.000, 0.000, 0.000, 18:40:35.054
154, -6444.99, -6524.50, -6562.25, -6500.67, -58909.00, -93356.39, -116700.48, -103779.59, 0.000, 0.000, 0.000, 18:40:35.054
155, -6436.30, -6517.37, -6556.30, -6495.08, -58904.09, -93351.43, -116695.86, -103775.62, 0.000, 0.000, 0.000, 18:40:35.054
156, -6434.26, -6515.56, -6554.96, -6493.45, -58902.88, -93349.84, -116694.48, -103774.09, 0.046, 0.000, 0.982, 18:40:35.054
157, -6442.35, -6522.08, -6560.33, -6498.23, -58907.37, -93354.12, -116698.55, -103777.41, 0.000, 0.000, 0.000, 18:40:35.054
158, -6445.19, -6524.09, -6561.56, -6499.44, -58908.18, -93355.21, -116699.55, -103778.12, 0.000, 0.000, 0.000, 18:40:35.055
159, -6440.12, -6519.69, -6557.42, -6495.73, -58904.69, -93351.88, -116696.33, -103775.30, 0.000, 0.000, 0.000, 18:40:35.055
160, -6430.69, -6511.82, -6550.65, -6489.40, -58899.04, -93346.16, -116690.83, -103770.65, 0.000, 0.000, 0.000, 18:40:35.055
161, -6429.30, -6510.75, -6549.93, -6488.42, -58898.48, -93345.24, -116689.98, -103769.83, 0.000, 0.000, 0.000, 18:40:35.055
162, -6437.73, -6517.48, -6555.68, -6493.67, -58903.24, -93349.91, -116694.50, -103773.49, 0.000, 0.000, 0.000, 18:40:35.055
163, -6445.35, -6524.29, -6561.56, -6499.64, -58908.89, -93355.66, -116700.22, -103779.01, 0.000, 0.000, 0.000, 18:40:35.055
164, -6444.32, -6523.80, -6561.53, -6499.91, -58909.38, -93356.23, -116701.05, -103780.17, 0.000, 0.000, 0.000, 18:40:35.055
165, -6432.36, -6513.43, -6552.21, -6490.95, -58901.14, -93348.08, -116693.02, -103772.89, 0.000, 0.000, 0.000, 18:40:35.055
166, -6427.40, -6508.74, -6547.97, -6486.43, -58897.07, -93343.66, -116688.66, -103768.40, 0.042, -0.002, 0.978, 18:40:35.055
167, -6434.69, -6514.35, -6552.66, -6490.59, -58900.73, -93347.19, -116691.99, -103770.98, 0.000, 0.000, 0.000, 18:40:35.055
168, -6441.44, -6520.27, -6557.76, -6495.82, -58905.63, -93352.20, -116696.87, -103775.70, 0.000, 0.000, 0.000, 18:40:35.055
169, -6438.96, -6518.48, -6556.19, -6494.66, -58904.58, -93351.43, -116696.29, -103775.50, 0.000, 0.000, 0.000, 18:40:35.056
170, -6430.37, -6511.49, -6550.27, -6489.20, -58899.80, -93346.56, -116691.79, -103771.70, 0.000, 0.000, 0.000, 18:40:35.056
171, -6428.18, -6509.48, -6548.77, -6487.41, -58898.54, -93344.93, -116690.09, -103769.98, 0.000, 0.000, 0.000, 18:40:35.056
172, -6437.01, -6516.79, -6554.96, -6493.05, -58903.75, -93349.89, -116694.97, -103773.89, 0.000, 0.000, 0.000, 18:40:35.056
173, -6440.97, -6519.94, -6557.29, -6495.39, -58905.65, -93352.15, -116697.11, -103775.84, 0.000, 0.000, 0.000, 18:40:35.056
174, -6439.22, -6518.84, -6556.57, -6495.01, -58905.52, -93352.17, -116697.29, -103776.42, 0.000, 0.000, 0.000, 18:40:35.056
175, -6431.92, -6513.05, -6551.94, -6490.72, -58902.01, -93348.46, -116693.98, -103773.85, 0.000, 0.000, 0.000, 18:40:35.056
176, -6430.06, -6511.47, -6550.60, -6489.25, -58900.98, -93346.98, -116692.59, -103772.46, 0.044, -0.002, 0.982, 18:40:35.056
177, -6438.11, -6518.04, -6556.03, -6494.17, -58905.43, -93351.39, -116696.69, -103775.66, 0.000, 0.000, 0.000, 18:40:35.057
178, -6444.32, -6523.45, -6560.73, -6498.81, -58909.72, -93355.95, -116701.07, -103779.80, 0.000, 0.000, 0.000, 18:40:35.057
179, -6441.82, -6521.59, -6559.25, -6497.79, -58908.78, -93355.14, -116700.51, -103779.57, 0.000, 0.000, 0.000, 18:40:35.057
180, -6429.79, -6511.06, -6549.96, -6488.80, -58900.46, -93346.72, -116692.44, -103772.20, 0.000, 0.000, 0.000, 18:40:35.057
181, -6426.71, -6508.20, -6547.36, -6486.05, -58898.07, -93344.03, -116689.76, -103769.55, 0.000, 0.000, 0.000, 18:40:35.057
182, -6436.94, -6516.74, -6554.89, -6492.98, -58904.67, -93350.52, -116695.97, -103775.05, 0.000, 0.000, 0.000, 18:40:35.057
183, -6442.91, -6521.86, -6559.16, -6497.29, -58908.73, -93354.77, -116700.06, -103779.05, 0.000, 0.000, 0.000, 18:40:35.057
184, -6441.12, -6520.81, -6558.40, -6497.07, -58908.67, -93354.80, -116700.35, -103779.68, 0.000, 0.000, 0.000, 18:40:35.057
185, -6434.02, -6515.29, -6554.02, -6493.23, -58905.38, -93351.43, -116697.41, -103777.42, 0.000, 0.000, 0.000, 18:40:35.057
186, -6430.98, -6512.49, -6551.61, -6490.32, -58903.08, -93348.84, -116694.81, -103774.72, 0.000, 0.000, 0.000, 18:40:35.058
187, -6439.29, -6519.20, -6557.20, -6495.39, -58907.68, -93353.35, -116699.10, -103778.12, 0.034, -0.002, 0.980, 18:40:35.058
188, -6445.15, -6524.27, -6561.47, -6499.71, -58911.64, -93357.45, -116703.15, -103781.91, 0.000, 0.000, 0.000, 18:40:35.058
189, -6442.11, -6521.77, -6559.37, -6498.03, -58910.23, -93356.23, -116702.05, -103781.25, 0.000, 0.000, 0.000, 18:40:35.058
190, -6433.48, -6514.82, -6553.58, -6492.62, -58905.43, -93351.39, -116697.45, -103777.38, 0.000, 0.000, 0.000, 18:40:35.058
191, -6432.43, -6514.04, -6553.17, -6491.84, -58905.09, -93350.65, -116696.84, -103776.58, 0.000, 0.000, 0.000, 18:40:35.058
192, -6440.65, -6520.52, -6558.65, -6496.80, -58909.59, -93355.03, -116700.98, -103779.95, 0.000, 0.000, 0.000, 18:40:35.058
193, -6445.59, -6524.56, -6561.85, -6500.16, -58912.49, -93358.18, -116704.09, -103782.81, 0.000, 0.000, 0.000, 18:40:35.058
194, -6440.36, -6520.20, -6557.71, -6496.40, -58908.94, -93354.85, -116700.94, -103780.04, 0.000, 0.000, 0.000, 18:40:35.059
195, -6431.67, -6513.16, -6551.79, -6490.81, -58904.06, -93349.94, -116696.35, -103776.11, 0.000, 0.000, 0.000, 18:40:35.059
196, -6431.18, -6512.72, -6551.72, -6490.43, -58904.18, -93349.69, -116696.11, -103775.86, 0.000, 0.000, 0.000, 18:40:35.059
197, -6439.31, -6519.13, -6557.11, -6495.22, -58908.63, -93353.96, -116700.11, -103779.08, 0.040, 0.000, 0.976, 18:40:35.059
198, -6442.87, -6521.97, -6559.16, -6497.34, -58910.46, -93355.92, -116702.03, -103780.80, 0.000, 0.000, 0.000, 18:40:35.059
199, -6439.52, -6519.29, -6556.77, -6495.39, -58908.67, -93354.38, -116700.60, -103779.75, 0.000, 0.000, 0.000, 18:40:35.059
200, -6428.99, -6510.28, -6548.99, -6487.95, -58901.76, -93347.48, -116694.03, -103773.91, 0.000, 0.000, 0.000, 18:40:35.060
201, -6426.80, -6508.20, -6547.36, -6486.01, -58900.33, -93345.58, -116692.22, -103771.99, 0.000, 0.000, 0.000, 18:40:35.060
202, -6438.08, -6517.90, -6556.01, -6494.05, -58908.04, -93353.06, -116699.46, -103778.54, 0.000, 0.000, 0.000, 18:40:35.060
203, -6443.54, -6522.60, -6559.95, -6498.08, -58911.69, -93356.91, -116703.35, -103782.09, 0.000, 0.000, 0.000, 18:40:35.060
204, -6440.72, -6520.32, -6558.02, -6496.62, -58910.32, -93355.77, -116702.39, -103781.56, 0.000, 0.000, 0.000, 18:40:35.060
205, -6432.18, -6513.32, -6552.21, -6491.17, -58905.56, -93350.88, -116697.80, -103777.70, 0.000, 0.000, 0.000, 18:40:35.060
206, -6432.03, -6513.41, -6552.68, -6491.30, -58906.10, -93351.05, -116698.07, -103777.85, 0.000, 0.000, 0.000, 18:40:35.060
207, -6439.81, -6519.51, -6557.69, -6495.77, -58910.21, -93355.01, -116701.78, -103780.80, 0.038, -0.004, 0.972, 18:40:35.061
208, -6445.04, -6524.00, -6561.31, -6499.51, -58913.63, -93358.65, -116705.30, -103784.11, 0.000, 0.000, 0.000, 18:40:35.061
209, -6442.42, -6521.99, -6559.77, -6498.28, -58912.60, -93357.96, -116704.73, -103783.91, 0.000, 0.000, 0.000, 18:40:35.061
210, -6433.35, -6514.50, -6553.51, -6492.31, -58907.37, -93352.73, -116699.73, -103779.59, 0.000, 0.000, 0.000, 18:40:35.061
211, -6432.32, -6513.68, -6552.88, -6491.53, -58906.93, -93351.88, -116699.10, -103778.70, 0.000, 0.000, 0.000, 18:40:35.061
212, -6439.14, -6518.82, -6557.02, -6495.06, -58910.01, -93354.72, -116701.76, -103780.69, 0.000, 0.000, 0.000, 18:40:35.061
213, -6443.99, -6522.95, -6560.35, -6498.50, -58912.96, -93357.91, -116704.84, -103783.75, 0.000, 0.000, 0.000, 18:40:35.061
214, -6441.79, -6521.55, -6559.19, -6497.81, -58912.54, -93357.71, -116704.76, -103784.09, 0.000, 0.000, 0.000, 18:40:35.061
215, -6430.51, -6511.76, -6550.67, -6489.56, -58905.09, -93350.20, -116697.52, -103777.47, 0.000, 0.000, 0.000, 18:40:35.061
216, -6428.67, -6510.03, -6549.33, -6487.97, -58903.91, -93348.57, -116695.93, -103775.75, 0.000, 0.000, 0.000, 18:40:35.062
217, -6438.82, -6518.60, -6556.73, -6494.86, -58910.34, -93354.96, -116702.01, -103781.09, 0.042, -0.004, 0.970, 18:40:35.062
218, -6445.26, -6524.23, -6561.58, -6499.78, -58914.97, -93359.79, -116706.79, -103785.67, 0.000, 0.000, 0.000, 18:40:35.062
219, -6442.49, -6522.15, -6559.88, -6498.43, -58913.77, -93358.85, -116706.08, -103785.29, 0.000, 0.000, 0.000, 18:40:35.062
220, -6435.42, -6516.70, -6555.57, -6494.50, -58910.57, -93355.55, -116703.05, -103782.99, 0.000, 0.000, 0.000, 18:40:35.062
221, -6433.48, -6514.80, -6554.00, -6492.65, -58909.12, -93353.71, -116701.27, -103781.09, 0.000, 0.000, 0.000, 18:40:35.062
222, -6441.79, -6521.50, -6559.52, -6497.70, -58913.65, -93358.07, -116705.52, -103784.45, 0.000, 0.000, 0.000, 18:40:35.062
223, -6442.98, -6521.99, -6559.16, -6497.61, -58913.09, -93357.78, -116705.02, -103783.86, 0.000, 0.000, 0.000, 18:40:35.063
224, -6437.59, -6517.34, -6554.85, -6493.67, -58909.36, -93354.23, -116701.67, -103780.98, 0.000, 0.000, 0.000, 18:40:35.063
225, -6427.06, -6508.38, -6547.09, -6486.23, -58902.70, -93347.50, -116695.26, -103775.26, 0.000, 0.000, 0.000, 18:40:35.063
226, -6426.57, -6507.91, -6547.03, -6485.81, -58902.63, -93347.05, -116694.92, -103774.70, 0.000, 0.000, 0.000, 18:40:35.528
227, -6438.17, -6517.81, -6555.79, -6494.01, -58910.52, -93354.77, -116702.37, -103781.42, 0.042, -0.002, 0.972, 18:40:35.528
228, -6444.05, -6522.98, -6560.24, -6498.48, -58914.64, -93359.19, -116706.68, -103785.56, 0.000, 0.000, 0.000, 18:40:35.528
229, -6439.74, -6519.33, -6556.97, -6495.55, -58912.02, -93356.80, -116704.42, -103783.66, 0.000, 0.000, 0.000, 18:40:35.528
230, -6430.35, -6511.60, -6550.27, -6489.20, -58906.50, -93351.05, -116699.05, -103778.95, 0.000, 0.000, 0.000, 18:40:35.528
231, -6429.39, -6510.62, -6549.75, -6488.35, -58906.10, -93350.20, -116698.37, -103778.07, 0.000, 0.000, 0.000, 18:40:35.528
232, -6440.54, -6520.03, -6558.11, -6496.18, -58913.54, -93357.53, -116705.36, -103784.38, 0.000, 0.000, 0.000, 18:40:35.529
233, -6445.68, -6524.47, -6561.76, -6499.91, -58916.89, -93361.09, -116708.91, -103787.66, 0.000, 0.000, 0.000, 18:40:35.529
234, -6443.52, -6523.09, -6560.71, -6499.24, -58916.38, -93360.82, -116708.78, -103788.00, 0.000, 0.000, 0.000, 18:40:35.529
235, -6435.98, -6517.12, -6555.95, -6494.86, -58912.69, -93357.09, -116705.30, -103785.27, 0.000, 0.000, 0.000, 18:40:35.529
236, -6434.75, -6515.91, -6555.10, -6493.56, -58911.91, -93355.88, -116704.17, -103784.02, 0.000, 0.000, 0.000, 18:40:35.529
237, -6443.31, -6522.75, -6560.77, -6498.79, -58916.67, -93360.46, -116708.53, -103787.69, 0.038, -0.008, 0.976, 18:40:35.529
238, -6448.70, -6527.38, -6564.62, -6502.70, -58920.22, -93364.33, -116712.24, -103791.23, 0.000, 0.000, 0.000, 18:40:35.529
239, -6445.28, -6524.56, -6562.27, -6500.83, -58918.46, -93362.79, -116710.88, -103790.26, 0.000, 0.000, 0.000, 18:40:35.529
240, -6435.22, -6516.02, -6554.96, -6493.90, -58912.29, -93356.48, -116704.91, -103784.94, 0.000, 0.000, 0.000, 18:40:35.530
241, -6431.92, -6512.94, -6552.12, -6490.66, -58909.50, -93353.38, -116701.88, -103781.65, 0.000, 0.000, 0.000, 18:40:35.530
242, -6441.04, -6520.50, -6558.47, -6496.56, -58914.88, -93358.63, -116706.97, -103785.85, 0.000, 0.000, 0.000, 18:40:35.530
243, -6448.54, -6527.36, -6564.57, -6502.73, -58920.74, -93364.73, -116712.96, -103791.75, 0.000, 0.000, 0.000, 18:40:35.530
244, -6445.33, -6524.90, -6562.45, -6500.98, -58919.22, -93363.48, -116711.91, -103791.08, 0.000, 0.000, 0.000, 18:40:35.530
245, -6434.55, -6515.67, -6554.47, -6493.18, -58912.29, -93356.46, -116705.14, -103785.02, 0.000, 0.000, 0.000, 18:40:35.530
246, -6433.90, -6515.02, -6554.16, -6492.47, -58912.00, -93355.66, -116704.51, -103784.20, 0.000, 0.000, 0.000, 18:40:35.530
247, -6445.59, -6525.10, -6562.96, -6500.94, -58919.91, -93363.45, -116712.13, -103791.08, 0.038, -0.006, 0.978, 18:40:35.530
248, -6452.52, -6531.34, -6568.51, -6506.57, -58925.25, -93369.00, -116717.59, -103796.38, 0.000, 0.000, 0.000, 18:40:35.531
249, -6450.04, -6529.68, -6567.14, -6505.61, -58924.54, -93368.46, -116717.14, -103796.49, 0.000, 0.000, 0.000, 18:40:35.531
250, -6438.67, -6519.85, -6558.60, -6497.36, -58916.89, -93360.80, -116709.72, -103789.80, 0.000, 0.000, 0.000, 18:40:35.531
251, -6435.87, -6517.08, -6556.12, -6494.57, -58914.43, -93357.94, -116706.88, -103786.86, 0.000, 0.000, 0.000, 18:40:35.531
252, -6442.73, -6522.24, -6560.24, -6498.14, -58917.61, -93360.98, -116709.79, -103788.80, 0.000, 0.000, 0.000, 18:40:35.531
253, -6446.15, -6524.97, -6562.23, -6500.24, -58919.29, -93362.88, -116711.66, -103790.41, 0.000, 0.000, 0.000, 18:40:35.531
254, -6442.20, -6521.79, -6559.48, -6497.92, -58917.18, -93360.93, -116709.88, -103789.16, 0.000, 0.000, 0.000, 18:40:35.531
255, -6433.48, -6514.71, -6553.49, -6492.31, -58912.36, -93356.04, -116705.09, -103785.13, 0.000, 0.000, 0.000, 18:40:35.531
0, -6433.99, -6515.22, -6554.27, -6492.80, -58913.07, -93356.33, -116705.63, -103785.38, 0.000, 0.000, 0.000, 18:40:35.531
1, -6446.85, -6526.53, -6564.42, -6502.30, -58922.19, -93365.22, -116714.48, -103793.41, 0.040, -0.004, 0.980, 18:40:35.532
2, -6452.32, -6531.16, -6568.40, -6506.41, -58925.99, -93369.34, -116718.44, -103797.14, 0.000, 0.000, 0.000, 18:40:35.532
3, -6446.73, -6526.24, -6564.01, -6502.37, -58922.19, -93365.73, -116714.99, -103794.21, 0.000, 0.000, 0.000, 18:40:35.532
4, -6434.31, -6515.44, -6554.45, -6493.09, -58913.63, -93357.22, -116706.63, -103786.61, 0.000, 0.000, 0.000, 18:40:35.532
5, -6433.08, -6514.33, -6553.49, -6491.93, -58912.69, -93355.95, -116705.41, -103785.13, 0.000, 0.000, 0.000, 18:40:35.532
6, -6442.17, -6521.72, -6559.81, -6497.74, -58918.10, -93361.11, -116710.39, -103789.41, 0.000, 0.000, 0.000, 18:40:35.532
7, -6447.83, -6526.55, -6563.95, -6501.94, -58922.01, -93365.22, -116714.46, -103793.30, 0.000, 0.000, 0.000, 18:40:35.532
8, -6443.02, -6522.60, -6560.42, -6498.77, -58919.00, -93362.43, -116711.84, -103791.20, 0.000, 0.000, 0.000, 18:40:35.532
9, -6432.70, -6513.95, -6552.91, -6491.64, -58912.58, -93355.92, -116705.63, -103785.63, 0.000, 0.000, 0.000, 18:40:35.533
10, -6431.98, -6513.28, -6552.61, -6490.92, -58912.27, -93355.14, -116704.98, -103784.78, 0.000, 0.000, 0.000, 18:40:35.533
11, -6441.04, -6520.65, -6558.87, -6496.65, -58917.52, -93360.23, -116709.83, -103788.89, 0.038, 0.000, 0.980, 18:40:35.533
12, -6448.79, -6527.85, -6565.29, -6503.22, -58923.73, -93366.83, -116716.20, -103795.10, 0.000, 0.000, 0.000, 18:40:35.533
13, -6445.15, -6525.01, -6562.72, -6501.16, -58921.97, -93365.27, -116714.79, -103794.10, 0.000, 0.000, 0.000, 18:40:35.533
14, -6432.54, -6513.86, -6552.79, -6491.59, -58913.21, -93356.33, -116706.21, -103786.14, 0.000, 0.000, 0.000, 18:40:35.533
15, -6430.60, -6511.71, -6551.09, -6489.52, -58911.46, -93354.20, -116704.13, -103783.95, 0.000, 0.000, 0.000, 18:40:35.534
16, -6441.48, -6521.05, -6559.21, -6497.16, -58918.61, -93361.20, -116710.99, -103789.92, 0.000, 0.000, 0.000, 18:40:35.534
17, -6443.47, -6522.44, -6559.83, -6497.96, -58919.00, -93361.89, -116711.55, -103790.41, 0.000, 0.000, 0.000, 18:40:35.534
18, -6438.38, -6517.99, -6555.88, -6494.43, -58915.69, -93358.77, -116708.52, -103787.93, 0.000, 0.000, 0.000, 18:40:35.534
19, -6429.05, -6510.26, -6549.37, -6488.29, -58910.28, -93353.22, -116703.35, -103783.33, 0.000, 0.000, 0.000, 18:40:35.534
20, -6429.10, -6510.33, -6549.64, -6488.17, -58910.57, -93353.11, -116703.44, -103783.17, 0.000, 0.000, 0.000, 18:40:35.534
21, -6439.29, -6518.86, -6557.04, -6495.13, -58917.05, -93359.48, -116709.54, -103788.51, 0.000, 0.000, 0.000, 18:40:35.534
22, -6443.47, -6522.26, -6559.72, -6497.88, -58919.62, -93362.20, -116712.18, -103791.04, 0.040, 0.002, 0.984, 18:40:35.534
23, -6440.81, -6520.43, -6558.27, -6496.91, -58918.84, -93361.65, -116711.69, -103791.13, 0.000, 0.000, 0.000, 18:40:35.535
24, -6432.23, -6513.34, -6552.44, -6491.42, -58914.08, -93356.77, -116707.22, -103787.10, 0.000, 0.000, 0.000, 18:40:35.535
25, -6431.38, -6512.43, -6551.83, -6490.37, -58913.39, -93355.73, -116706.14, -103785.94, 0.000, 0.000, 0.000, 18:40:35.535
26, -6442.44, -6521.84, -6560.04, -6498.10, -58920.74, -93362.90, -116713.18, -103792.22, 0.000, 0.000, 0.000, 18:40:35.535
27, -6446.35, -6525.06, -6562.52, -6500.76, -58922.97, -93365.40, -116715.69, -103794.55, 0.000, 0.000, 0.000, 18:40:35.535
28, -6441.71, -6521.08, -6559.10, -6497.63, -58920.14, -93362.70, -116713.23, -103792.49, 0.000, 0.000, 0.000, 18:40:35.535
29, -6432.43, -6513.37, -6552.61, -6491.46, -58914.73, -93357.22, -116708.00, -103787.91, 0.000, 0.000, 0.000, 18:40:35.535
30, -6432.09, -6512.94, -6552.46, -6491.01, -58914.64, -93356.69, -116707.46, -103787.20, 0.000, 0.000, 0.000, 18:40:35.536
31, -6441.42, -6520.58, -6559.05, -6497.00, -58920.18, -93362.14, -116712.78, -103791.66, 0.000, 0.000, 0.000, 18:40:35.536
32, -6447.36, -6525.90, -6563.63, -6501.63, -58924.54, -93366.72, -116717.27, -103796.09, 0.040, -0.002, 0.984, 18:40:35.536
33, -6442.24, -6521.59, -6559.75, -6498.34, -58921.41, -93363.77, -116714.41, -103793.77, 0.000, 0.000, 0.000, 18:40:35.536
34, -6431.04, -6511.87, -6551.23, -6490.10, -58913.88, -93356.15, -116707.10, -103787.21, 0.000, 0.000, 0.000, 18:40:35.536
35, -6431.31, -6512.09, -6551.61, -6490.10, -58914.23, -93356.17, -116707.10, -103786.97, 0.000, 0.000, 0.000, 18:40:35.536
36, -6440.70, -6519.89, -6558.27, -6496.22, -58919.91, -93361.73, -116712.52, -103791.57, 0.000, 0.000, 0.000, 18:40:35.536
37, -6445.73, -6524.16, -6561.89, -6500.02, -58923.31, -93365.40, -116716.13, -103795.06, 0.000, 0.000, 0.000, 18:40:35.536
38, -6444.23, -6523.49, -6561.62, -6500.11, -58923.69, -93365.89, -116716.76, -103796.24, 0.000, 0.000, 0.000, 18:40:35.536
39, -6433.08, -6513.99, -6553.29, -6492.11, -58916.40, -93358.54, -116709.67, -103789.74, 0.000, 0.000, 0.000, 18:40:35.537
40, -6430.02, -6510.71, -6550.22, -6488.78, -58913.43, -93355.27, -116706.30, -103786.21, 0.000, 0.000, 0.000, 18:40:35.537
41, -6438.89, -6517.90, -6556.24, -6494.28, -58918.50, -93360.13, -116711.02, -103790.21, 0.000, 0.000, 0.000, 18:40:35.537
42, -6442.58, -6521.01, -6558.54, -6496.80, -58920.70, -93362.54, -116713.43, -103792.49, 0.036, 0.000, 0.982, 18:40:35.537
43, -6437.88, -6517.12, -6555.16, -6493.79, -58917.92, -93360.02, -116710.99, -103790.50, 0.000, 0.000, 0.000, 18:40:35.537
44, -6429.08, -6509.92, -6549.26, -6488.17, -58913.00, -93354.92, -116706.30, -103786.48, 0.000, 0.000, 0.000, 18:40:35.537
45, -6431.36, -6512.09, -6551.56, -6490.07, -58915.33, -93356.80, -116708.29, -103788.24, 0.000, 0.000, 0.000, 18:40:35.537
46, -6439.49, -6518.39, -6556.73, -6494.84, -58919.62, -93361.02, -116712.16, -103791.40, 0.000, 0.000, 0.000, 18:40:35.537
47, -6441.79, -6520.03, -6557.69, -6495.91, -58920.40, -93362.02, -116713.18, -103792.16, 0.000, 0.000, 0.000, 18:40:35.538
48, -6435.83, -6515.00, -6553.11, -6491.64, -58916.43, -93358.14, -116709.54, -103789.00, 0.000, 0.000, 0.000, 18:40:35.538
49, -6429.01, -6509.65, -6548.90, -6487.75, -58913.32, -93355.03, -116706.63, -103786.73, 0.000, 0.000, 0.000, 18:40:35.538
50, -6428.41, -6508.87, -6548.44, -6486.97, -58912.80, -93354.09, -116705.70, -103785.54, 0.000, 0.000, 0.000, 18:40:35.538
51, -6436.59, -6515.40, -6553.82, -6491.71, -58917.23, -93358.43, -116709.92, -103788.91, 0.000, 0.000, 0.000, 18:40:35.538
52, -6440.41, -6518.53, -6556.24, -6494.21, -58919.53, -93360.91, -116712.31, -103791.22, 0.034, -0.002, 0.982, 18:40:35.538
53, -6435.67, -6514.55, -6552.70, -6491.21, -58916.71, -93358.27, -116709.80, -103789.30, 0.000, 0.000, 0.000, 18:40:35.538
54, -6427.02, -6507.42, -6546.80, -6485.67, -58911.86, -93353.38, -116705.18, -103785.31, 0.000, 0.000, 0.000, 18:40:35.539
55, -6428.21, -6508.45, -6548.21, -6486.63, -58913.21, -93354.31, -116706.12, -103786.01, 0.000, 0.000, 0.000, 18:40:35.539
56, -6438.06, -6516.74, -6555.25, -6493.20, -58919.40, -93360.40, -116711.95, -103791.10, 0.000, 0.000, 0.000, 18:40:35.539
57, -6441.97, -6520.05, -6557.80, -6495.98, -58921.75, -93362.92, -116714.63, -103793.52, 0.000, 0.000, 0.000, 18:40:35.539
58, -6436.83, -6515.67, -6553.87, -6492.51, -58918.46, -93359.86, -116711.77, -103791.08, 0.000, 0.000, 0.000, 18:40:35.539
59, -6429.84, -6510.30, -6549.64, -6488.58, -58915.24, -93356.57, -116708.73, -103788.76, 0.000, 0.000, 0.000, 18:40:35.540
60, -6429.23, -6509.52, -6549.19, -6487.64, -58914.66, -93355.73, -116707.84, -103787.59, 0.000, 0.000, 0.000, 18:40:35.540
61, -6436.50, -6515.06, -6553.55, -6491.53, -58918.13, -93359.08, -116710.95, -103789.98, 0.000, 0.000, 0.000, 18:40:35.540
62, -6440.27, -6518.22, -6556.01, -6494.17, -58920.52, -93361.60, -116713.52, -103792.36, 0.038, -0.002, 0.978, 18:40:35.540
63, -6434.84, -6513.61, -6551.99, -6490.52, -58917.09, -93358.36, -116710.44, -103789.77, 0.000, 0.000, 0.000, 18:40:35.540
64, -6425.90, -6506.28, -6545.84, -6484.64, -58911.98, -93353.13, -116705.52, -103785.47, 0.000, 0.000, 0.000, 18:40:35.540
65, -6425.48, -6505.77, -6545.46, -6483.91, -58911.53, -93352.41, -116704.60, -103784.42, 0.000, 0.000, 0.000, 18:40:35.540
66, -6436.74, -6515.31, -6553.80, -6491.77, -58919.00, -93359.63, -116711.69, -103790.79, 0.000, 0.000, 0.000, 18:40:35.540
67, -6441.68, -6519.53, -6557.40, -6495.48, -58922.44, -93363.28, -116715.33, -103794.34, 0.000, 0.000, 0.000, 18:40:35.541
68, -6434.75, -6513.48, -6551.79, -6490.32, -58917.50, -93358.54, -116710.91, -103790.23, 0.000, 0.000, 0.000, 18:40:35.541
69, -6424.70, -6505.10, -6544.50, -6483.46, -58911.29, -93352.20, -116704.82, -103784.78, 0.000, 0.000, 0.000, 18:40:35.541
70, -6426.06, -6506.30, -6545.91, -6484.42, -58912.63, -93353.16, -116705.77, -103785.45, 0.000, 0.000, 0.000, 18:40:35.541
71, -6434.98, -6513.57, -6551.90, -6490.01, -58917.83, -93358.30, -116710.66, -103789.54, 0.000, 0.000, 0.000, 18:40:35.541
72, -6441.28, -6519.27, -6556.97, -6495.24, -58922.68, -93363.39, -116715.69, -103794.57, 0.038, 0.000, 0.978, 18:40:35.541
73, -6437.75, -6516.61, -6554.83, -6493.45, -58921.14, -93361.94, -116714.62, -103793.97, 0.000, 0.000, 0.000, 18:40:35.541
74, -6429.79, -6510.12, -6549.64, -6488.62, -58916.94, -93357.69, -116710.59, -103790.59, 0.000, 0.000, 0.000, 18:40:35.541
75, -6431.22, -6511.22, -6551.01, -6489.58, -58918.28, -93358.56, -116711.48, -103791.23, 0.000, 0.000, 0.000, 18:40:35.542
76, -6437.15, -6515.56, -6554.22, -6492.29, -58920.52, -93360.71, -116713.38, -103792.36, 0.000, 0.000, 0.000, 18:40:35.542
77, -6442.17, -6520.07, -6558.02, -6496.22, -58924.25, -93364.59, -116717.25, -103796.16, 0.000, 0.000, 0.000, 18:40:35.542
78, -6436.41, -6515.18, -6553.67, -6492.29, -58920.45, -93361.04, -116713.79, -103793.25, 0.000, 0.000, 0.000, 18:40:35.542
79, -6428.38, -6508.69, -6548.44, -6487.19, -58916.11, -93356.66, -116709.65, -103789.88, 0.000, 0.000, 0.000, 18:40:35.542
80, -6430.55, -6510.59, -6550.45, -6488.73, -58918.13, -93358.20, -116711.33, -103791.20, 0.000, 0.000, 0.000, 18:40:35.542
81, -6437.24, -6515.73, -6554.40, -6492.24, -58921.12, -93361.09, -116714.01, -103793.05, 0.000, 0.000, 0.000, 18:40:35.542
82, -6440.52, -6518.48, -6556.55, -6494.52, -58923.04, -93363.32, -116716.20, -103795.20, 0.040, -0.002, 0.982, 18:40:35.542
83, -6436.16, -6514.91, -6553.35, -6491.84, -58920.61, -93361.09, -116714.16, -103793.65, 0.000, 0.000, 0.000, 18:40:35.543
84, -6423.98, -6504.22, -6543.85, -6482.65, -58912.18, -93352.44, -116705.85, -103785.92, 0.000, 0.000, 0.000, 18:40:35.543
85, -6425.37, -6505.48, -6545.28, -6483.59, -58913.43, -93353.35, -116706.73, -103786.50, 0.000, 0.000, 0.000, 18:40:35.543
86, -6436.23, -6514.73, -6553.40, -6491.15, -58920.65, -93360.46, -116713.52, -103792.67, 0.000, 0.000, 0.000, 18:40:35.543
87, -6439.54, -6517.48, -6555.48, -6493.41, -58922.57, -93362.70, -116715.69, -103794.75, 0.000, 0.000, 0.000, 18:40:35.543
88, -6434.35, -6513.21, -6551.65, -6489.96, -58919.46, -93359.70, -116712.85, -103792.40, 0.000, 0.000, 0.000, 18:40:35.543
89, -6425.77, -6506.19, -6545.82, -6484.44, -58914.77, -93354.83, -116708.31, -103788.53, 0.000, 0.000, 0.000, 18:40:35.543
90, -6428.29, -6508.60, -6548.28, -6486.54, -58917.16, -93356.88, -116710.39, -103790.26, 0.000, 0.000, 0.000, 18:40:36.010
91, -6439.18, -6517.81, -6556.30, -6494.14, -58924.27, -93363.81, -116717.14, -103796.29, 0.000, 0.000, 0.000, 18:40:36.010
92, -6441.68, -6519.58, -6557.51, -6495.48, -58925.32, -93365.06, -116718.44, -103797.38, 0.036, -0.002, 0.984, 18:40:36.010
93, -6435.42, -6514.17, -6552.61, -6491.04, -58921.07, -93361.06, -116714.59, -103794.03, 0.000, 0.000, 0.000, 18:40:36.010
94, -6426.28, -6506.53, -6546.20, -6484.82, -58915.64, -93355.55, -116709.32, -103789.45, 0.000, 0.000, 0.000, 18:40:36.011
95, -6426.89, -6506.84, -6546.69, -6484.91, -58916.09, -93355.55, -116709.34, -103789.20, 0.000, 0.000, 0.000, 18:40:36.011
96, -6436.52, -6514.84, -6553.55, -6491.42, -58921.97, -93361.42, -116714.95, -103794.05, 0.000, 0.000, 0.000, 18:40:36.011
97, -6440.36, -6518.28, -6556.30, -6494.28, -58924.61, -93364.13, -116717.81, -103796.78, 0.000, 0.000, 0.000, 18:40:36.011
98, -6434.82, -6513.66, -6552.01, -6490.52, -58921.07, -93360.77, -116714.57, -103794.08, 0.000, 0.000, 0.000, 18:40:36.011
99, -6425.37, -6505.63, -6545.24, -6484.00, -58915.29, -93354.96, -116708.98, -103789.18, 0.000, 0.000, 0.000, 18:40:36.011
100, -6424.05, -6504.31, -6543.85, -6482.27, -58913.92, -93353.16, -116707.17, -103787.05, 0.000, 0.000, 0.000, 18:40:36.011
101, -6434.93, -6513.50, -6551.92, -6489.85, -58921.07, -93360.17, -116714.01, -103793.12, 0.000, 0.000, 0.000, 18:40:36.012
102, -6441.01, -6518.93, -6556.86, -6494.86, -58925.77, -93365.11, -116718.95, -103797.85, 0.040, 0.000, 0.982, 18:40:36.012
103, -6439.40, -6518.19, -6556.71, -6495.04, -58926.28, -93365.67, -116719.71, -103799.15, 0.000, 0.000, 0.000, 18:40:36.012
104, -6430.10, -6510.48, -6550.04, -6488.80, -58920.74, -93360.08, -116714.30, -103794.44, 0.000, 0.000, 0.000, 18:40:36.012
105, -6431.74, -6511.91, -6551.61, -6490.01, -58922.13, -93361.11, -116715.30, -103795.10, 0.000, 0.000, 0.000, 18:40:36.012
106, -6438.67, -6517.14, -6555.74, -6493.63, -58925.16, -93364.15, -116718.13, -103797.19, 0.000, 0.000, 0.000, 18:40:36.012
107, -6439.34, -6517.21, -6555.14, -6493.16, -58924.47, -93363.59, -116717.66, -103796.67, 0.000, 0.000, 0.000, 18:40:36.013
108, -6432.85, -6511.71, -6550.11, -6488.53, -58920.22, -93359.55, -116713.67, -103793.20, 0.000, 0.000, 0.000, 18:40:36.013
109, -6425.88, -6506.23, -6545.84, -6484.62, -58917.05, -93356.21, -116710.61, -103790.75, 0.000, 0.000, 0.000, 18:40:36.013
110, -6426.95, -6507.06, -6546.74, -6485.07, -58917.68, -93356.51, -116710.99, -103790.86, 0.000, 0.000, 0.000, 18:40:36.013
111, -6435.27, -6513.68, -6552.15, -6489.96, -58922.15, -93361.00, -116715.22, -103794.32, 0.000, 0.000, 0.000, 18:40:36.013
112, -6441.73, -6519.56, -6557.58, -6495.44, -58927.29, -93366.45, -116720.63, -103799.58, 0.000, 0.000, 0.000, 18:40:36.013
113, -6437.75, -6516.56, -6555.01, -6493.43, -58925.43, -93364.77, -116719.17, -103798.68, 0.046, -0.002, 0.984, 18:40:36.013
114, -6426.06, -6506.48, -6546.09, -6484.87, -58917.61, -93356.75, -116711.40, -103791.59, 0.000, 0.000, 0.000, 18:40:36.013
115, -6426.80, -6506.88, -6546.65, -6485.00, -58918.08, -93356.73, -116711.44, -103791.26, 0.000, 0.000, 0.000, 18:40:36.013
116, -6435.67, -6514.10, -6552.66, -6490.45, -58923.20, -93361.63, -116716.24, -103795.24, 0.000, 0.000, 0.000, 18:40:36.015
117, -6439.87, -6517.81, -6555.74, -6493.76, -58926.19, -93364.84, -116719.33, -103798.39, 0.000, 0.000, 0.000, 18:40:36.015
118, -6433.73, -6512.56, -6550.98, -6489.43, -58922.17, -93360.91, -116715.58, -103795.15, 0.000, 0.000, 0.000, 18:40:36.015
119, -6424.41, -6504.80, -6544.41, -6483.06, -58916.54, -93355.25, -116710.16, -103790.34, 0.000, 0.000, 0.000, 18:40:36.015
120, -6427.44, -6507.58, -6547.23, -6485.54, -58919.29, -93357.55, -116712.63, -103792.47, 0.000, 0.000, 0.000, 18:40:36.015
121, -6436.23, -6514.68, -6553.11, -6491.04, -58924.27, -93362.54, -116717.32, -103796.40, 0.000, 0.000, 0.000, 18:40:36.015
122, -6438.29, -6516.14, -6554.05, -6492.11, -58924.98, -93363.55, -116718.19, -103797.25, 0.000, 0.000, 0.000, 18:40:36.015
123, -6433.70, -6512.49, -6550.94, -6489.38, -58922.55, -93361.27, -116716.23, -103795.71, 0.042, -0.004, 0.982, 18:40:36.015
124, -6424.47, -6504.67, -6544.34, -6483.06, -58917.05, -93355.57, -116710.81, -103790.92, 0.000, 0.000, 0.000, 18:40:36.015
125, -6424.45, -6504.38, -6544.14, -6482.48, -58916.71, -93354.85, -116710.13, -103789.92, 0.000, 0.000, 0.000, 18:40:36.015
126, -6432.83, -6511.17, -6549.84, -6487.64, -58921.45, -93359.48, -116714.52, -103793.49, 0.000, 0.000, 0.000, 18:40:36.015
127, -6436.52, -6514.26, -6552.39, -6490.37, -58923.82, -93362.20, -116717.09, -103796.11, 0.000, 0.000, 0.000, 18:40:36.017
128, -6432.14, -6510.75, -6549.35, -6487.82, -58921.59, -93360.13, -116715.15, -103794.73, 0.000, 0.000, 0.000, 18:40:36.017
129, -6424.52, -6504.63, -6544.48, -6483.28, -58917.65, -93356.10, -116711.51, -103791.71, 0.000, 0.000, 0.000, 18:40:36.017
130, -6424.29, -6504.09, -6544.08, -6482.48, -58917.09, -93355.14, -116710.57, -103790.45, 0.000, 0.000, 0.000, 18:40:36.017
131, -6435.38, -6513.57, -6552.35, -6490.32, -58924.52, -93362.48, -116717.50, -103796.73, 0.000, 0.000, 0.000, 18:40:36.017
132, -6440.70, -6518.46, -6556.55, -6494.68, -58928.61, -93366.70, -116721.84, -103800.94, 0.000, 0.000, 0.000, 18:40:36.017
133, -6431.89, -6510.59, -6549.28, -6487.77, -58921.95, -93360.28, -116715.69, -103795.28, 0.038, -0.006, 0.976, 18:40:36.017
134, -6423.31, -6503.58, -6543.41, -6482.18, -58917.05, -93355.34, -116710.95, -103791.23, 0.000, 0.000, 0.000, 18:40:36.017
135, -6427.74, -6507.55, -6547.52, -6485.90, -58921.03, -93358.90, -116714.48, -103794.50, 0.000, 0.000, 0.000, 18:40:36.017
136, -6437.35, -6515.38, -6554.13, -6492.11, -58926.80, -93364.51, -116719.94, -103799.17, 0.000, 0.000, 0.000, 18:40:36.018
137, -6440.48, -6518.06, -6556.19, -6494.41, -58928.81, -93366.81, -116722.26, -103801.38, 0.000, 0.000, 0.000, 18:40:36.018
138, -6436.81, -6515.38, -6554.07, -6492.78, -58927.36, -93365.54, -116721.16, -103800.88, 0.000, 0.000, 0.000, 18:40:36.018
139, -6426.22, -6506.30, -6546.31, -6485.16, -58920.47, -93358.56, -116714.37, -103794.70, 0.000, 0.000, 0.000, 18:40:36.018
140, -6425.32, -6505.10, -6545.19, -6483.48, -58919.18, -93356.77, -116712.60, -103792.69, 0.000, 0.000, 0.000, 18:40:36.018
141, -6434.93, -6513.14, -6552.03, -6489.94, -58925.03, -93362.56, -116718.19, -103797.41, 0.000, 0.000, 0.000, 18:40:36.018
142, -6440.05, -6517.66, -6555.86, -6494.05, -58928.83, -93366.59, -116722.30, -103801.41, 0.000, 0.000, 0.000, 18:40:36.018
143, -6434.49, -6512.96, -6551.72, -6490.34, -58925.43, -93363.32, -116719.29, -103798.91, 0.038, -0.004, 0.978, 18:40:36.018
144, -6424.43, -6504.38, -6544.43, -6483.28, -58919.02, -93356.88, -116712.96, -103793.25, 0.000, 0.000, 0.000, 18:40:36.018
145, -6426.60, -6506.08, -6546.22, -6484.67, -58920.74, -93358.07, -116714.28, -103794.21, 0.000, 0.000, 0.000, 18:40:36.018
146, -6436.72, -6514.55, -6553.53, -6491.55, -58927.09, -93364.41, -116720.38, -103799.44, 0.000, 0.000, 0.000, 18:40:36.019
147, -6437.55, -6514.84, -6553.22, -6491.39, -58926.66, -93364.38, -116720.31, -103799.30, 0.000, 0.000, 0.000, 18:40:36.019
148, -6431.76, -6509.99, -6548.90, -6487.55, -58923.15, -93361.06, -116717.05, -103796.67, 0.000, 0.000, 0.000, 18:40:36.019
149, -6424.63, -6504.40, -6544.52, -6483.41, -58919.75, -93357.53, -116713.79, -103793.98, 0.000, 0.000, 0.000, 18:40:36.019
150, -6426.93, -6506.39, -6546.56, -6485.00, -58921.54, -93358.92, -116715.17, -103795.15, 0.000, 0.000, 0.000, 18:40:36.019
151, -6435.65, -6513.39, -6552.44, -6490.48, -58926.53, -93363.70, -116719.94, -103799.09, 0.000, 0.000, 0.000, 18:40:36.019
152, -6439.63, -6516.85, -6555.43, -6493.49, -58929.30, -93366.83, -116722.93, -103801.97, 0.000, 0.000, 0.000, 18:40:36.019
153, -6434.31, -6512.43, -6551.63, -6490.03, -58926.15, -93363.93, -116720.27, -103799.76, 0.040, -0.004, 0.986, 18:40:36.019
154, -6427.04, -6506.64, -6547.07, -6485.74, -58922.59, -93360.15, -116716.80, -103797.01, 0.000, 0.000, 0.000, 18:40:36.020
155, -6430.91, -6510.21, -6550.60, -6488.85, -58925.99, -93363.08, -116719.82, -103799.62, 0.000, 0.000, 0.000, 18:40:36.020
156, -6438.00, -6515.78, -6554.87, -6492.67, -58929.39, -93366.43, -116722.91, -103801.97, 0.000, 0.000, 0.000, 18:40:36.020
157, -6439.27, -6516.58, -6555.14, -6493.07, -58929.52, -93366.83, -116723.20, -103802.33, 0.000, 0.000, 0.000, 18:40:36.020
158, -6437.28, -6515.51, -6554.72, -6492.94, -58929.75, -93367.26, -116723.69, -103803.45, 0.000, 0.000, 0.000, 18:40:36.020
159, -6428.07, -6507.80, -6548.21, -6486.72, -58924.29, -93361.69, -116718.37, -103798.73, 0.000, 0.000, 0.000, 18:40:36.020
160, -6428.47, -6507.82, -6548.30, -6486.43, -58924.16, -93361.13, -116717.81, -103797.83, 0.000, 0.000, 0.000, 18:40:36.020
161, -6438.87, -6516.56, -6555.77, -6493.56, -58930.77, -93367.75, -116724.12, -103803.38, 0.000, 0.000, 0.000, 18:40:36.020
162, -6442.15, -6519.36, -6558.00, -6495.95, -58932.90, -93370.16, -116726.55, -103805.68, 0.000, 0.000, 0.000, 18:40:36.021
163, -6436.39, -6514.55, -6553.69, -6492.04, -58929.43, -93366.72, -116723.40, -103803.11, 0.040, -0.006, 0.980, 18:40:36.021
164, -6425.77, -6505.41, -6545.73, -6484.42, -58922.41, -93359.57, -116716.47, -103796.80, 0.000, 0.000, 0.000, 18:40:36.021
165, -6428.63, -6507.84, -6548.32, -6486.41, -58924.76, -93361.47, -116718.41, -103798.34, 0.000, 0.000, 0.000, 18:40:36.021
166, -6439.60, -6517.12, -6556.46, -6494.17, -58931.96, -93368.62, -116725.43, -103804.56, 0.000, 0.000, 0.000, 18:40:36.021
167, -6446.00, -6523.04, -6561.85, -6499.80, -58937.19, -93374.19, -116731.00, -103809.97, 0.000, 0.000, 0.000, 18:40:36.021
168, -6440.72, -6518.64, -6558.07, -6496.40, -58934.24, -93371.34, -116728.31, -103808.00, 0.000, 0.000, 0.000, 18:40:36.021
169, -6429.64, -6509.19, -6549.78, -6488.42, -58926.95, -93363.95, -116721.12, -103801.43, 0.000, 0.000, 0.000, 18:40:36.021
170, -6428.79, -6507.96, -6548.52, -6486.79, -58925.43, -93362.05, -116719.17, -103799.17, 0.000, 0.000, 0.000, 18:40:36.022
171, -6439.92, -6517.37, -6556.91, -6494.66, -58932.92, -93369.29, -116726.23, -103805.48, 0.000, 0.000, 0.000, 18:40:36.022
172, -6443.96, -6521.03, -6559.83, -6497.85, -58935.89, -93372.48, -116729.48, -103808.74, 0.000, 0.000, 0.000, 18:40:36.022
173, -6436.45, -6514.42, -6553.78, -6492.22, -58930.62, -93367.41, -116724.59, -103804.29, 0.040, -0.006, 0.978, 18:40:36.022
174, -6426.24, -6505.68, -6546.27, -6484.89, -58924.00, -93360.75, -116718.16, -103798.52, 0.000, 0.000, 0.000, 18:40:36.022
175, -6426.33, -6505.50, -6545.98, -6484.26, -58923.49, -93359.81, -116717.34, -103797.25, 0.000, 0.000, 0.000, 18:40:36.022
176, -6437.32, -6514.73, -6554.07, -6491.91, -58930.66, -93366.97, -116724.27, -103803.38, 0.000, 0.000, 0.000, 18:40:36.022
177, -6444.43, -6521.46, -6560.24, -6498.19, -58936.77, -93373.36, -116730.51, -103809.63, 0.000, 0.000, 0.000, 18:40:36.023
178, -6438.84, -6516.90, -6556.30, -6494.75, -58933.55, -93370.30, -116727.60, -103807.33, 0.000, 0.000, 0.000, 18:40:36.023
179, -6427.18, -6506.66, -6547.32, -6485.96, -58925.57, -93362.12, -116719.71, -103800.11, 0.000, 0.000, 0.000, 18:40:36.023
180, -6428.63, -6507.58, -6548.26, -6486.41, -58926.28, -93362.38, -116719.95, -103799.91, 0.000, 0.000, 0.000, 18:40:36.023
181, -6437.82, -6515.13, -6554.60, -6492.35, -58931.69, -93367.80, -116725.19, -103804.34, 0.000, 0.000, 0.000, 18:40:36.023
182, -6441.79, -6518.73, -6557.55, -6495.60, -58934.64, -93370.97, -116728.49, -103807.58, 0.000, 0.000, 0.000, 18:40:36.023
183, -6436.54, -6514.50, -6553.93, -6492.40, -58931.73, -93368.20, -116725.95, -103805.50, 0.038, -0.006, 0.974, 18:40:36.023
184, -6427.56, -6507.06, -6547.68, -6486.36, -58926.37, -93362.79, -116720.76, -103800.88, 0.000, 0.000, 0.000, 18:40:36.023
185, -6429.01, -6508.05, -6548.68, -6486.90, -58927.11, -93363.14, -116721.05, -103800.89, 0.000, 0.000, 0.000, 18:40:36.025
186, -6436.88, -6514.17, -6553.64, -6491.37, -58931.20, -93367.13, -116724.80, -103803.98, 0.000, 0.000, 0.000, 18:40:36.025
187, -6440.34, -6517.30, -6556.19, -6494.12, -58933.55, -93369.78, -116727.53, -103806.57, 0.000, 0.000, 0.000, 18:40:36.025
188, -6433.28, -6511.15, -6550.65, -6489.00, -58928.85, -93365.16, -116723.06, -103802.66, 0.000, 0.000, 0.000, 18:40:36.025
189, -6424.63, -6504.00, -6544.70, -6483.37, -58923.91, -93360.06, -116718.21, -103798.55, 0.000, 0.000, 0.000, 18:40:36.025
190, -6427.74, -6506.64, -6547.41, -6485.49, -58926.28, -93362.09, -116720.29, -103800.16, 0.000, 0.000, 0.000, 18:40:36.025
191, -6438.11, -6515.42, -6554.94, -6492.60, -58932.96, -93368.76, -116726.64, -103805.86, 0.000, 0.000, 0.000, 18:40:36.025
192, -6440.61, -6517.46, -6556.39, -6494.32, -58934.55, -93370.52, -116728.27, -103807.45, 0.000, 0.000, 0.000, 18:40:36.025
193, -6434.06, -6511.93, -6551.45, -6489.85, -58930.37, -93366.48, -116724.47, -103804.18, 0.040, -0.002, 0.978, 18:40:36.026
194, -6422.64, -6502.17, -6542.82, -6481.49, -58922.64, -93358.63, -116716.98, -103797.27, 0.000, 0.000, 0.000, 18:40:36.026
195, -6422.26, -6501.34, -6542.06, -6480.24, -58921.48, -93357.18, -116715.48, -103795.46, 0.000, 0.000, 0.000, 18:40:36.026
196, -6434.26, -6511.60, -6551.18, -6488.96, -58929.75, -93365.29, -116723.47, -103802.70, 0.000, 0.000, 0.000, 18:40:36.026
197, -6440.30, -6517.12, -6556.19, -6494.08, -58934.82, -93370.56, -116728.72, -103807.84, 0.000, 0.000, 0.000, 18:40:36.026
198, -6436.45, -6514.26, -6553.96, -6492.22, -58933.34, -93369.31, -116727.65, -103807.24, 0.000, 0.000, 0.000, 18:40:36.026
199, -6427.85, -6507.11, -6547.88, -6486.50, -58928.29, -93364.10, -116722.70, -103802.98, 0.000, 0.000, 0.000, 18:40:36.026
200, -6427.60, -6506.50, -6547.14, -6485.31, -58927.29, -93362.79, -116721.25, -103801.19, 0.000, 0.000, 0.000, 18:40:36.026
201, -6433.48, -6510.86, -6550.20, -6488.11, -58929.39, -93364.89, -116723.20, -103802.37, 0.000, 0.000, 0.000, 18:40:36.027
202, -6434.17, -6511.04, -6549.98, -6488.13, -58929.16, -93364.84, -116723.22, -103802.30, 0.000, 0.000, 0.000, 18:40:36.027
203, -6430.31, -6508.13, -6547.74, -6486.30, -58927.78, -93363.48, -116722.08, -103801.70, 0.000, 0.000, 0.000, 18:40:36.027
204, -6422.39, -6501.81, -6542.47, -6481.45, -58923.55, -93359.16, -116717.88, -103798.23, 0.038, -0.004, 0.984, 18:40:36.027
205, -6424.70, -6503.55, -6544.17, -6482.63, -58924.98, -93360.20, -116718.97, -103798.91, 0.000, 0.000, 0.000, 18:40:36.027
206, -6436.34, -6513.54, -6553.06, -6491.04, -58932.92, -93368.09, -116726.69, -103805.88, 0.000, 0.000, 0.000, 18:40:36.027
207, -6437.01, -6513.88, -6552.77, -6491.04, -58932.74, -93368.11, -116726.64, -103805.86, 0.000, 0.000, 0.000, 18:40:36.027
208, -6432.27, -6510.10, -6549.66, -6488.29, -58930.46, -93365.89, -116724.74, -103804.36, 0.000, 0.000, 0.000, 18:40:36.027
209, -6422.84, -6502.06, -6542.78, -6481.67, -58924.56, -93359.86, -116718.95, -103799.13, 0.000, 0.000, 0.000, 18:40:36.028
210, -6425.19, -6503.93, -6544.57, -6483.01, -58925.97, -93360.93, -116719.95, -103799.80, 0.000, 0.000, 0.000, 18:40:36.028
211, -6437.66, -6514.80, -6554.29, -6492.27, -58934.69, -93369.65, -116728.54, -103807.71, 0.000, 0.000, 0.000, 18:40:36.493
212, -6439.09, -6515.82, -6554.78, -6492.98, -58935.22, -93370.34, -116729.23, -103808.34, 0.000, 0.000, 0.000, 18:40:36.493
213, -6432.68, -6510.44, -6549.93, -6488.58, -58931.24, -93366.50, -116725.59, -103805.32, 0.000, 0.000, 0.000, 18:40:36.493
214, -6424.72, -6503.84, -6544.64, -6483.37, -58926.84, -93361.98, -116721.34, -103801.56, 0.044, -0.004, 0.980, 18:40:36.493
215, -6426.84, -6505.50, -6546.18, -6484.55, -58928.18, -93362.97, -116722.17, -103801.97, 0.000, 0.000, 0.000, 18:40:36.493
216, -6432.65, -6509.70, -6549.11, -6487.12, -58930.28, -93365.00, -116723.98, -103803.04, 0.000, 0.000, 0.000, 18:40:36.493
217, -6435.87, -6512.54, -6551.54, -6489.74, -58932.63, -93367.52, -116726.53, -103805.68, 0.000, 0.000, 0.000, 18:40:36.493
218, -6432.68, -6510.41, -6550.11, -6488.76, -58931.89, -93367.08, -116726.23, -103806.02, 0.000, 0.000, 0.000, 18:40:36.493
219, -6420.67, -6499.91, -6540.70, -6479.66, -58923.51, -93358.47, -116718.03, -103798.32, 0.000, 0.000, 0.000, 18:40:36.494
220, -6421.75, -6500.51, -6541.06, -6479.59, -58923.73, -93358.25, -116717.84, -103797.56, 0.000, 0.000, 0.000, 18:40:36.494
221, -6432.61, -6509.74, -6549.06, -6487.24, -58930.80, -93365.40, -116724.65, -103803.73, 0.000, 0.000, 0.000, 18:40:36.494
222, -6435.72, -6512.40, -6551.23, -6489.54, -58932.92, -93367.70, -116727.09, -103806.17, 0.000, 0.000, 0.000, 18:40:36.494
223, -6429.05, -6506.84, -6546.20, -6484.93, -58928.72, -93363.63, -116723.29, -103802.80, 0.000, 0.000, 0.000, 18:40:36.494
224, -6421.30, -6500.69, -6541.24, -6480.13, -58924.79, -93359.52, -116719.27, -103799.48, 0.038, -0.004, 0.982, 18:40:36.494
225, -6423.15, -6502.10, -6542.51, -6481.00, -58925.77, -93360.08, -116719.89, -103799.73, 0.000, 0.000, 0.000, 18:40:36.494
226, -6434.71, -6511.93, -6551.27, -6489.34, -58933.57, -93367.88, -116727.49, -103806.59, 0.000, 0.000, 0.000, 18:40:36.494
227, -6438.26, -6515.06, -6553.91, -6492.18, -58936.12, -93370.74, -116730.38, -103809.45, 0.000, 0.000, 0.000, 18:40:36.495
228, -6431.54, -6509.43, -6548.97, -6487.55, -58931.85, -93366.63, -116726.44, -103806.05, 0.000, 0.000, 0.000, 18:40:36.495
229, -6423.42, -6502.86, -6543.45, -6482.30, -58927.40, -93362.00, -116722.02, -103802.26, 0.000, 0.000, 0.000, 18:40:36.495
230, -6426.84, -6505.79, -6546.20, -6484.64, -58929.88, -93364.10, -116724.13, -103803.94, 0.000, 0.000, 0.000, 18:40:36.495
231, -6435.92, -6513.12, -6552.39, -6490.54, -58935.18, -93369.42, -116729.21, -103808.20, 0.000, 0.000, 0.000, 18:40:36.495
232, -6437.79, -6514.68, -6553.40, -6491.71, -58936.21, -93370.70, -116730.38, -103809.48, 0.000, 0.000, 0.000, 18:40:36.495
233, -6431.58, -6509.59, -6548.86, -6487.53, -58932.41, -93367.05, -116726.93, -103806.66, 0.000, 0.000, 0.000, 18:40:36.495
234, -6422.77, -6502.17, -6542.60, -6481.47, -58927.18, -93361.58, -116721.74, -103802.10, 0.044, -0.004, 0.980, 18:40:36.495
235, -6426.37, -6505.21, -6545.57, -6483.95, -58929.86, -93363.75, -116723.95, -103803.87, 0.000, 0.000, 0.000, 18:40:36.495
236, -6436.63, -6513.90, -6553.04, -6490.95, -58936.38, -93370.32, -116730.28, -103809.43, 0.000, 0.000, 0.000, 18:40:36.496
237, -6439.25, -6516.23, -6554.85, -6492.87, -58938.11, -93372.35, -116732.23, -103811.42, 0.000, 0.000, 0.000, 18:40:36.496
238, -6432.36, -6510.39, -6549.66, -6488.20, -58933.61, -93368.17, -116728.23, -103807.98, 0.000, 0.000, 0.000, 18:40:36.496
239, -6422.26, -6501.65, -6542.20, -6481.04, -58927.09, -93361.42, -116721.84, -103802.21, 0.000, 0.000, 0.000, 18:40:36.496
240, -6423.85, -6502.73, -6543.14, -6481.47, -58927.71, -93361.65, -116721.97, -103801.99, 0.000, 0.000, 0.000, 18:40:36.496
241, -6433.99, -6511.20, -6550.31, -6488.26, -58934.08, -93367.95, -116728.14, -103807.29, 0.000, 0.000, 0.000, 18:40:36.496
242, -6437.68, -6514.57, -6553.20, -6491.37, -58937.01, -93371.05, -116731.29, -103810.48, 0.000, 0.000, 0.000, 18:40:36.496
243, -6431.40, -6509.32, -6548.70, -6487.37, -58933.25, -93367.50, -116727.94, -103807.69, 0.000, 0.000, 0.000, 18:40:36.496
244, -6421.70, -6501.16, -6541.69, -6480.51, -58927.27, -93361.22, -116721.97, -103802.30, 0.046, -0.004, 0.978, 18:40:36.497
245, -6423.94, -6502.75, -6543.07, -6481.49, -58928.50, -93361.98, -116722.68, -103802.57, 0.000, 0.000, 0.000, 18:40:36.497
246, -6434.64, -6511.87, -6550.89, -6488.91, -58935.38, -93368.95, -116729.34, -103808.56, 0.000, 0.000, 0.000, 18:40:36.497
247, -6436.63, -6513.50, -6552.10, -6490.23, -58936.43, -93370.30, -116730.77, -103809.92, 0.000, 0.000, 0.000, 18:40:36.497
248, -6432.97, -6510.84, -6550.00, -6488.64, -58935.22, -93369.27, -116729.91, -103809.59, 0.000, 0.000, 0.000, 18:40:36.497
249, -6424.07, -6503.42, -6543.88, -6482.70, -58930.02, -93363.84, -116724.65, -103805.09, 0.000, 0.000, 0.000, 18:40:36.497
250, -6425.28, -6503.96, -6544.30, -6482.70, -58930.11, -93363.48, -116724.31, -103804.27, 0.000, 0.000, 0.000, 18:40:36.498
251, -6436.16, -6513.28, -6552.44, -6490.43, -58937.37, -93370.70, -116731.40, -103810.64, 0.000, 0.000, 0.000, 18:40:36.498
252, -6440.25, -6516.96, -6555.74, -6493.83, -58940.61, -93374.14, -116734.82, -103814.13, 0.000, 0.000, 0.000, 18:40:36.498
253, -6432.61, -6510.44, -6549.71, -6488.40, -58935.42, -93369.24, -116730.10, -103809.97, 0.000, 0.000, 0.000, 18:40:36.498
254, -6422.53, -6501.79, -6542.13, -6481.13, -58928.90, -93362.49, -116723.66, -103804.11, 0.042, -0.006, 0.978, 18:40:36.498
255, -6425.70, -6504.40, -6544.57, -6483.06, -58930.98, -93364.10, -116725.25, -103805.21, 0.000, 0.000, 0.000, 18:40:36.498
0, -6433.97, -6511.04, -6549.96, -6488.02, -58935.42, -93368.66, -116729.57, -103808.80, 0.000, 0.000, 0.000, 18:40:36.498
1, -6436.79, -6513.59, -6551.97, -6490.25, -58937.52, -93371.03, -116731.91, -103811.18, 0.000, 0.000, 0.000, 18:40:36.499
2, -6432.32, -6510.17, -6549.26, -6487.95, -58935.54, -93369.29, -116730.39, -103810.20, 0.000, 0.000, 0.000, 18:40:36.499
3, -6425.25, -6504.49, -6544.72, -6483.61, -58931.91, -93365.52, -116726.86, -103807.33, 0.000, 0.000, 0.000, 18:40:36.499
4, -6428.38, -6507.06, -6547.07, -6485.54, -58933.99, -93367.21, -116728.54, -103808.47, 0.000, 0.000, 0.000, 18:40:36.499
5, -6436.99, -6514.13, -6552.97, -6490.99, -58938.98, -93372.09, -116733.34, -103812.47, 0.000, 0.000, 0.000, 18:40:36.499
6, -6438.89, -6515.71, -6554.13, -6492.33, -58940.16, -93373.59, -116734.71, -103813.81, 0.000, 0.000, 0.000, 18:40:36.499
7, -6433.48, -6511.49, -6550.49, -6489.14, -58937.41, -93370.88, -116732.23, -103811.94, 0.000, 0.000, 0.000, 18:40:36.499
8, -6424.63, -6504.16, -6544.17, -6483.08, -58932.12, -93365.38, -116727.00, -103807.42, 0.036, -0.002, 0.978, 18:40:36.499
9, -6426.53, -6505.43, -6545.35, -6483.77, -58932.88, -93365.83, -116727.51, -103807.38, 0.000, 0.000, 0.000, 18:40:36.499
10, -6434.42, -6511.73, -6550.38, -6488.49, -58937.10, -93370.05, -116731.55, -103810.59, 0.000, 0.000, 0.000, 18:40:36.500
11, -6436.92, -6513.97, -6552.17, -6490.52, -58938.89, -93372.11, -116733.52, -103812.72, 0.000, 0.000, 0.000, 18:40:36.500
12, -6431.78, -6509.74, -6548.59, -6487.50, -58936.09, -93369.58, -116731.11, -103811.02, 0.000, 0.000, 0.000, 18:40:36.500
13, -6422.42, -6501.79, -6541.77, -6480.80, -58930.28, -93363.50, -116725.30, -103805.77, 0.000, 0.000, 0.000, 18:40:36.500
14, -6425.86, -6504.65, -6544.50, -6482.90, -58932.74, -93365.45, -116727.20, -103807.20, 0.000, 0.000, 0.000, 18:40:36.500
15, -6433.75, -6510.91, -6549.71, -6487.57, -58936.90, -93369.67, -116731.22, -103810.48, 0.000, 0.000, 0.000, 18:40:36.500
16, -6436.74, -6513.59, -6551.97, -6490.10, -58939.11, -93372.22, -116733.77, -103813.08, 0.000, 0.000, 0.000, 18:40:36.500
17, -6433.30, -6511.31, -6550.20, -6488.98, -58938.29, -93371.48, -116733.39, -103813.21, 0.000, 0.000, 0.000, 18:40:36.501
18, -6426.15, -6505.59, -6545.57, -6484.55, -58934.66, -93367.57, -116729.79, -103810.10, 0.038, -0.008, 0.982, 18:40:36.501
19, -6426.71, -6505.52, -6545.26, -6483.73, -58933.97, -93366.54, -116728.77, -103808.60, 0.000, 0.000, 0.000, 18:40:36.501
20, -6435.83, -6512.94, -6551.59, -6489.58, -58939.45, -93371.98, -116733.97, -103813.05, 0.000, 0.000, 0.000, 18:40:36.501
21, -6440.72, -6517.57, -6555.74, -6493.90, -58943.65, -93376.40, -116738.38, -103817.57, 0.000, 0.000, 0.000, 18:40:36.501
22, -6432.61, -6510.55, -6549.42, -6488.06, -58938.11, -93371.05, -116733.16, -103813.05, 0.000, 0.000, 0.000, 18:40:36.501
23, -6422.53, -6501.92, -6541.84, -6480.80, -58931.47, -93364.20, -116726.59, -103806.99, 0.000, 0.000, 0.000, 18:40:36.501
24, -6424.03, -6502.81, -6542.62, -6481.07, -58931.80, -93364.15, -116726.51, -103806.39, 0.000, 0.000, 0.000, 18:40:36.501
25, -6432.27, -6509.43, -6548.12, -6486.23, -58936.47, -93368.76, -116731.00, -103810.15, 0.000, 0.000, 0.000, 18:40:36.502
26, -6437.32, -6514.17, -6552.46, -6490.75, -58940.88, -93373.36, -116735.71, -103814.77, 0.000, 0.000, 0.000, 18:40:36.502
27, -6432.52, -6510.57, -6549.26, -6488.06, -58938.73, -93371.30, -116733.97, -103813.55, 0.000, 0.000, 0.000, 18:40:36.502
28, -6424.00, -6503.49, -6543.29, -6482.27, -58933.59, -93366.12, -116728.88, -103809.14, 0.042, -0.010, 0.980, 18:40:36.502
29, -6427.11, -6505.90, -6545.60, -6484.02, -58935.49, -93367.62, -116730.22, -103810.15, 0.000, 0.000, 0.000, 18:40:36.502
30, -6436.41, -6513.50, -6552.12, -6490.12, -58941.14, -93373.29, -116735.70, -103814.84, 0.000, 0.000, 0.000, 18:40:36.502
31, -6440.25, -6517.08, -6555.12, -6493.41, -58944.23, -93376.64, -116739.00, -103818.22, 0.000, 0.000, 0.000, 18:40:36.502
32, -6433.66, -6511.76, -6550.36, -6489.23, -58940.32, -93372.87, -116735.42, -103815.18, 0.000, 0.000, 0.000, 18:40:36.502
33, -6424.23, -6503.71, -6543.52, -6482.65, -58934.42, -93366.67, -116729.66, -103809.95, 0.000, 0.000, 0.000, 18:40:36.503
34, -6428.56, -6507.42, -6547.09, -6485.67, -58937.57, -93369.47, -116732.45, -103812.31, 0.000, 0.000, 0.000, 18:40:36.503
35, -6435.72, -6512.96, -6551.39, -6489.69, -58941.05, -93373.02, -116735.73, -103814.93, 0.000, 0.000, 0.000, 18:40:36.503
36, -6437.21, -6514.06, -6552.12, -6490.59, -58941.84, -93374.09, -116736.74, -103815.89, 0.000, 0.000, 0.000, 18:40:36.503
37, -6429.10, -6507.11, -6545.84, -6484.75, -58936.32, -93368.80, -116731.60, -103811.38, 0.000, 0.000, 0.000, 18:40:36.503
38, -6421.19, -6500.60, -6540.54, -6479.66, -58931.94, -93364.26, -116727.31, -103807.55, 0.000, 0.000, 0.000, 18:40:36.503
39, -6425.77, -6504.36, -6544.17, -6482.61, -58935.20, -93367.03, -116730.06, -103809.86, 0.044, -0.010, 0.984, 18:40:36.503
40, -6434.89, -6512.00, -6550.56, -6488.69, -58940.77, -93372.62, -116735.42, -103814.59, 0.000, 0.000, 0.000, 18:40:36.503
41, -6436.68, -6513.57, -6551.72, -6490.12, -58941.97, -93374.01, -116736.92, -103816.12, 0.000, 0.000, 0.000, 18:40:36.504
42, -6430.08, -6508.13, -6546.92, -6485.81, -58938.02, -93370.25, -116733.44, -103813.14, 0.000, 0.000, 0.000, 18:40:36.504
43, -6424.74, -6504.20, -6544.14, -6483.23, -58936.23, -93368.30, -116731.78, -103811.91, 0.000, 0.000, 0.000, 18:40:36.504
44, -6428.00, -6506.75, -6546.40, -6485.02, -58938.04, -93369.73, -116733.21, -103812.85, 0.000, 0.000, 0.000, 18:40:36.504
45, -6435.11, -6512.23, -6550.74, -6488.85, -58941.44, -93373.09, -116736.32, -103815.38, 0.000, 0.000, 0.000, 18:40:36.504
46, -6438.00, -6514.95, -6552.97, -6491.35, -58943.71, -93375.66, -116738.82, -103817.99, 0.000, 0.000, 0.000, 18:40:36.504
47, -6427.78, -6505.90, -6544.57, -6483.46, -58936.27, -93368.30, -116731.69, -103811.42, 0.000, 0.000, 0.000, 18:40:36.504
48, -6422.39, -6501.88, -6541.75, -6480.75, -58934.39, -93366.30, -116729.91, -103810.13, 0.000, 0.000, 0.000, 18:40:36.504
49, -6426.04, -6504.94, -6544.57, -6483.03, -58936.72, -93368.24, -116731.83, -103811.47, 0.040, -0.006, 0.984, 18:40:36.505
50, -6435.45, -6512.78, -6551.12, -6489.36, -58942.42, -93373.96, -116737.34, -103816.27, 0.000, 0.000, 0.000, 18:40:36.505
51, -6438.89, -6516.00, -6553.91, -6492.27, -58945.26, -93377.02, -116740.38, -103819.52, 0.000, 0.000, 0.000, 18:40:36.505
52, -6434.26, -6512.45, -6550.98, -6489.94, -58943.27, -93375.30, -116738.89, -103818.58, 0.000, 0.000, 0.000, 18:40:36.505
53, -6425.48, -6504.98, -6544.75, -6483.82, -58937.99, -93369.73, -116733.63, -103813.84, 0.000, 0.000, 0.000, 18:40:36.505
54, -6426.98, -6505.83, -6545.42, -6483.93, -58938.26, -93369.54, -116733.41, -103813.05, 0.000, 0.000, 0.000, 18:40:36.505
55, -6437.24, -6514.59, -6552.88, -6490.99, -58944.81, -93376.16, -116739.83, -103818.80, 0.000, 0.000, 0.000, 18:40:36.505
56, -6438.13, -6515.09, -6552.99, -6491.39, -58944.88, -93376.58, -116740.23, -103819.24, 0.000, 0.000, 0.000, 18:40:36.505
57, -6429.97, -6508.07, -6546.62, -6485.67, -58939.52, -93371.23, -116735.16, -103814.80, 0.000, 0.000, 0.000, 18:40:36.506
58, -6421.95, -6501.50, -6541.22, -6480.40, -58935.00, -93366.56, -116730.75, -103811.02, 0.000, 0.000, 0.000, 18:40:36.506
59, -6426.60, -6505.41, -6545.02, -6483.59, -58938.39, -93369.52, -116733.68, -103813.39, 0.044, -0.004, 0.982, 18:40:36.506
60, -6435.54, -6512.76, -6551.14, -6489.38, -58943.70, -93374.79, -116738.75, -103817.66, 0.000, 0.000, 0.000, 18:40:36.506
61, -6438.87, -6515.80, -6553.84, -6492.24, -58946.51, -93377.90, -116741.80, -103820.77, 0.000, 0.000, 0.000, 18:40:36.506
62, -6433.50, -6511.67, -6550.31, -6489.11, -58943.85, -93375.51, -116739.55, -103819.16, 0.000, 0.000, 0.000, 18:40:36.506
63, -6423.80, -6503.44, -6543.07, -6482.12, -58937.55, -93368.95, -116733.34, -103813.48, 0.000, 0.000, 0.000, 18:40:36.506
64, -6426.80, -6505.65, -6545.08, -6483.68, -58939.11, -93370.12, -116734.44, -103814.06, 0.000, 0.000, 0.000, 18:40:36.506
65, -6436.68, -6513.90, -6552.23, -6490.43, -58945.37, -93376.42, -116740.50, -103819.54, 0.000, 0.000, 0.000, 18:40:36.506
66, -6438.29, -6515.35, -6553.20, -6491.64, -58946.40, -93377.70, -116741.91, -103820.98, 0.000, 0.000, 0.000, 18:40:36.507
67, -6433.37, -6511.58, -6550.20, -6489.16, -58944.36, -93375.73, -116740.12, -103819.70, 0.000, 0.000, 0.000, 18:40:36.507
68, -6426.19, -6505.81, -6545.69, -6484.73, -58940.68, -93371.88, -116736.50, -103816.61, 0.000, 0.000, 0.000, 18:40:36.507
69, -6428.14, -6507.02, -6546.60, -6485.02, -58941.04, -93371.81, -116736.43, -103816.12, 0.042, -0.006, 0.982, 18:40:36.507
70, -6434.33, -6511.64, -6550.00, -6488.09, -58943.61, -93374.37, -116738.73, -103817.77, 0.000, 0.000, 0.000, 18:40:36.507
71, -6437.77, -6514.86, -6552.84, -6491.21, -58946.53, -93377.70, -116742.02, -103821.15, 0.000, 0.000, 0.000, 18:40:36.507
72, -6432.88, -6511.11, -6549.75, -6488.60, -58944.32, -93375.68, -116740.20, -103819.98, 0.000, 0.000, 0.000, 18:40:36.507
73, -6424.85, -6504.49, -6544.19, -6483.35, -58939.71, -93370.92, -116735.58, -103815.96, 0.000, 0.000, 0.000, 18:40:36.507
74, -6430.66, -6509.43, -6549.04, -6487.73, -58944.12, -93374.79, -116739.60, -103819.40, 0.000, 0.000, 0.000, 18:40:36.508
75, -6438.84, -6516.05, -6554.58, -6492.85, -58948.84, -93379.35, -116744.03, -103823.18, 0.000, 0.000, 0.000, 18:40:36.973
76, -6439.00, -6515.96, -6554.09, -6492.56, -58948.39, -93379.20, -116743.80, -103823.05, 0.000, 0.000, 0.000, 18:40:36.974
77, -6433.52, -6511.67, -6550.49, -6489.31, -58945.59, -93376.69, -116741.50, -103821.30, 0.000, 0.000, 0.000, 18:40:36.974
78, -6425.90, -6505.27, -6545.33, -6484.31, -58941.35, -93372.20, -116737.37, -103817.57, 0.000, 0.000, 0.000, 18:40:36.974
79, -6430.66, -6509.25, -6549.04, -6487.44, -58944.63, -93375.08, -116740.19, -103819.87, 0.046, -0.006, 0.980, 18:40:36.974
80, -6439.78, -6516.92, -6555.41, -6493.54, -58950.15, -93380.58, -116745.48, -103824.56, 0.000, 0.000, 0.000, 18:40:36.974
81, -6440.34, -6517.37, -6555.45, -6493.85, -58950.24, -93380.91, -116745.84, -103824.97, 0.000, 0.000, 0.000, 18:40:36.974
82, -6434.31, -6512.43, -6551.27, -6490.21, -58947.05, -93377.78, -116742.95, -103822.71, 0.000, 0.000, 0.000, 18:40:36.974
83, -6426.33, -6505.81, -6545.73, -6484.91, -58942.38, -93372.91, -116738.38, -103818.66, 0.000, 0.000, 0.000, 18:40:36.974
84, -6430.73, -6509.48, -6549.04, -6487.68, -58945.21, -93375.44, -116740.90, -103820.66, 0.000, 0.000, 0.000, 18:40:36.975
85, -6440.23, -6517.43, -6555.95, -6494.01, -58951.09, -93381.52, -116746.60, -103825.77, 0.000, 0.000, 0.000, 18:40:36.975
86, -6441.30, -6518.30, -6556.57, -6494.81, -58951.72, -93382.32, -116747.47, -103826.71, 0.000, 0.000, 0.000, 18:40:36.975
87, -6433.88, -6512.16, -6551.09, -6489.83, -58947.09, -93377.92, -116743.29, -103823.09, 0.000, 0.000, 0.000, 18:40:36.975
88, -6424.45, -6504.09, -6544.17, -6483.03, -58941.04, -93371.70, -116737.23, -103817.57, 0.000, 0.000, 0.000, 18:40:36.975
89, -6427.02, -6505.94, -6545.71, -6484.13, -58942.18, -93372.45, -116737.95, -103817.73, 0.044, -0.006, 0.980, 18:40:36.975
90, -6435.22, -6512.52, -6551.07, -6489.11, -58946.73, -93377.02, -116742.35, -103821.46, 0.000, 0.000, 0.000, 18:40:36.975
91, -6439.18, -6516.18, -6554.36, -6492.60, -58950.06, -93380.60, -116746.04, -103825.17, 0.000, 0.000, 0.000, 18:40:36.975
92, -6433.66, -6511.96, -6550.80, -6489.54, -58947.36, -93378.03, -116743.70, -103823.42, 0.000, 0.000, 0.000, 18:40:36.976
93, -6427.18, -6506.86, -6546.76, -6485.67, -58944.25, -93374.72, -116740.56, -103820.92, 0.000, 0.000, 0.000, 18:40:36.976
94, -6433.37, -6512.31, -6551.94, -6490.37, -58949.01, -93379.02, -116744.88, -103824.61, 0.000, 0.000, 0.000, 18:40:36.976
95, -6443.40, -6520.76, -6559.14, -6497.27, -58955.34, -93385.43, -116751.00, -103830.09, 0.000, 0.000, 0.000, 18:40:36.976
96, -6443.43, -6520.50, -6558.52, -6496.85, -58954.78, -93385.27, -116750.78, -103829.99, 0.000, 0.000, 0.000, 18:40:36.976
97, -6435.34, -6513.66, -6552.46, -6491.19, -58949.53, -93380.06, -116745.88, -103825.80, 0.000, 0.000, 0.000, 18:40:36.976
98, -6425.99, -6505.63, -6545.62, -6484.60, -58943.49, -93373.88, -116739.91, -103820.32, 0.000, 0.000, 0.000, 18:40:36.976
99, -6430.28, -6509.21, -6548.81, -6487.15, -58946.22, -93376.22, -116742.24, -103821.99, 0.042, -0.004, 0.982, 18:40:36.976
100, -6440.90, -6518.24, -6556.66, -6494.63, -58953.35, -93383.23, -116749.10, -103828.14, 0.000, 0.000, 0.000, 18:40:36.976
101, -6439.02, -6516.23, -6554.22, -6492.44, -58950.91, -93381.09, -116746.98, -103826.13, 0.000, 0.000, 0.000, 18:40:36.977
102, -6432.03, -6510.59, -6549.19, -6488.06, -58946.82, -93377.13, -116743.20, -103823.02, 0.000, 0.000, 0.000, 18:40:36.977
103, -6422.91, -6502.73, -6542.47, -6481.49, -58941.01, -93371.10, -116737.41, -103817.68, 0.000, 0.000, 0.000, 18:40:36.977
104, -6428.61, -6507.62, -6547.12, -6485.51, -58945.21, -93374.90, -116741.10, -103820.88, 0.000, 0.000, 0.000, 18:40:36.977
105, -6439.43, -6516.99, -6555.30, -6493.38, -58952.59, -93382.30, -116748.43, -103827.42, 0.000, 0.000, 0.000, 18:40:36.977
106, -6439.25, -6516.56, -6554.51, -6492.94, -58951.85, -93381.80, -116748.05, -103827.09, 0.000, 0.000, 0.000, 18:40:36.977
107, -6431.74, -6510.28, -6548.95, -6487.79, -58947.20, -93377.31, -116743.65, -103823.42, 0.000, 0.000, 0.000, 18:40:36.977
108, -6425.34, -6505.21, -6545.02, -6483.93, -58944.10, -93374.09, -116740.56, -103820.88, 0.000, 0.000, 0.000, 18:40:36.977
109, -6429.68, -6508.74, -6548.21, -6486.57, -58946.82, -93376.33, -116742.84, -103822.46, 0.042, -0.004, 0.980, 18:40:36.978
110, -6436.48, -6514.01, -6552.28, -6490.39, -58950.09, -93379.62, -116745.91, -103824.92, 0.000, 0.000, 0.000, 18:40:36.978
111, -6438.13, -6515.51, -6553.38, -6491.77, -58951.34, -93381.14, -116747.49, -103826.48, 0.000, 0.000, 0.000, 18:40:36.978
112, -6433.19, -6511.87, -6550.45, -6489.20, -58949.24, -93379.13, -116745.82, -103825.39, 0.000, 0.000, 0.000, 18:40:36.978
113, -6423.94, -6503.89, -6543.67, -6482.54, -58943.29, -93372.94, -116739.85, -103819.98, 0.000, 0.000, 0.000, 18:40:36.978
114, -6427.06, -6506.06, -6545.53, -6483.93, -58944.72, -93373.98, -116740.85, -103820.50, 0.000, 0.000, 0.000, 18:40:36.978
115, -6435.38, -6512.83, -6551.09, -6489.27, -58949.46, -93378.74, -116745.44, -103824.54, 0.000, 0.000, 0.000, 18:40:36.978
116, -6436.94, -6514.19, -6552.17, -6490.54, -58950.64, -93380.22, -116746.94, -103825.99, 0.000, 0.000, 0.000, 18:40:36.978
117, -6430.89, -6509.30, -6548.08, -6486.86, -58947.38, -93377.18, -116744.03, -103823.70, 0.000, 0.000, 0.000, 18:40:36.979
118, -6423.22, -6502.93, -6542.74, -6481.71, -58942.98, -93372.48, -116739.65, -103819.85, 0.000, 0.000, 0.000, 18:40:36.979
119, -6427.56, -6506.32, -6545.75, -6484.22, -58945.50, -93374.56, -116741.64, -103821.41, 0.042, -0.006, 0.980, 18:40:36.979
120, -6435.09, -6512.38, -6550.54, -6488.80, -58949.62, -93378.70, -116745.59, -103824.66, 0.000, 0.000, 0.000, 18:40:36.979
121, -6434.93, -6512.23, -6549.98, -6488.47, -58949.17, -93378.55, -116745.44, -103824.56, 0.000, 0.000, 0.000, 18:40:36.979
122, -6430.06, -6508.60, -6547.14, -6485.96, -58947.09, -93376.55, -116743.73, -103823.42, 0.000, 0.000, 0.000, 18:40:36.979
123, -6423.24, -6503.04, -6542.71, -6481.60, -58943.49, -93372.66, -116740.09, -103820.41, 0.000, 0.000, 0.000, 18:40:36.979
124, -6427.13, -6506.12, -6545.51, -6483.82, -58945.77, -93374.56, -116741.95, -103821.66, 0.000, 0.000, 0.000, 18:40:36.980
125, -6434.20, -6511.64, -6549.93, -6487.95, -58949.37, -93378.23, -116745.33, -103824.38, 0.000, 0.000, 0.000, 18:40:36.980
126, -6436.99, -6514.30, -6552.28, -6490.59, -58951.79, -93381.05, -116748.16, -103827.25, 0.000, 0.000, 0.000, 18:40:36.980
127, -6430.40, -6508.96, -6547.65, -6486.45, -58948.01, -93377.47, -116744.84, -103824.45, 0.000, 0.000, 0.000, 18:40:36.980
128, -6423.85, -6503.69, -6543.50, -6482.32, -58944.72, -93373.96, -116741.66, -103821.77, 0.000, 0.000, 0.000, 18:40:36.980
129, -6428.12, -6507.17, -6546.51, -6484.80, -58947.32, -93376.17, -116743.73, -103823.31, 0.000, 0.000, 0.000, 18:40:36.980
130, -6437.19, -6514.73, -6552.86, -6490.92, -58952.97, -93381.70, -116749.05, -103828.07, 0.036, -0.006, 0.980, 18:40:36.980
131, -6439.78, -6517.19, -6555.07, -6493.36, -58955.23, -93384.22, -116751.65, -103830.78, 0.000, 0.000, 0.000, 18:40:36.980
132, -6432.09, -6510.68, -6549.37, -6488.11, -58950.31, -93379.55, -116747.13, -103826.89, 0.000, 0.000, 0.000, 18:40:36.980
133, -6423.87, -6503.75, -6543.45, -6482.27, -58945.26, -93374.27, -116742.13, -103822.33, 0.000, 0.000, 0.000, 18:40:36.981
134, -6428.90, -6507.93, -6547.23, -6485.51, -58948.54, -93377.13, -116745.02, -103824.54, 0.000, 0.000, 0.000, 18:40:36.981
135, -6437.88, -6515.33, -6553.38, -6491.46, -58953.98, -93382.63, -116750.29, -103829.08, 0.000, 0.000, 0.000, 18:40:36.981
136, -6438.15, -6515.62, -6553.29, -6491.59, -58954.04, -93382.84, -116750.58, -103829.51, 0.000, 0.000, 0.000, 18:40:36.981
137, -6431.80, -6510.44, -6548.97, -6487.75, -58950.55, -93379.51, -116747.49, -103827.05, 0.000, 0.000, 0.000, 18:40:36.981
138, -6421.37, -6501.34, -6540.92, -6479.88, -58943.47, -93372.15, -116740.45, -103820.43, 0.000, 0.000, 0.000, 18:40:36.981
139, -6426.77, -6505.85, -6545.17, -6483.44, -58947.07, -93375.46, -116743.70, -103823.09, 0.000, 0.000, 0.000, 18:40:36.981
140, -6436.43, -6514.01, -6552.06, -6490.03, -58953.21, -93381.65, -116749.59, -103828.34, 0.036, -0.004, 0.978, 18:40:36.982
141, -6438.04, -6515.53, -6553.22, -6491.46, -58954.42, -93383.26, -116751.12, -103830.02, 0.000, 0.000, 0.000, 18:40:36.982
142, -6429.61, -6508.36, -6546.85, -6485.56, -58949.01, -93377.85, -116745.98, -103825.46, 0.000, 0.000, 0.000, 18:40:36.982
143, -6421.23, -6501.21, -6540.72, -6479.59, -58943.71, -93372.24, -116740.68, -103820.63, 0.000, 0.000, 0.000, 18:40:36.982
144, -6427.49, -6506.61, -6545.73, -6483.95, -58948.12, -93376.35, -116744.66, -103824.16, 0.000, 0.000, 0.000, 18:40:36.982
145, -6436.32, -6513.99, -6552.01, -6489.87, -58953.64, -93381.92, -116749.93, -103828.81, 0.000, 0.000, 0.000, 18:40:36.982
146, -6435.78, -6513.30, -6551.03, -6489.25, -58952.84, -93381.25, -116749.41, -103828.48, 0.000, 0.000, 0.000, 18:40:36.982
147, -6429.64, -6508.45, -6546.89, -6485.60, -58949.57, -93378.12, -116746.51, -103826.24, 0.000, 0.000, 0.000, 18:40:36.983
148, -6423.87, -6503.82, -6543.34, -6482.25, -58946.91, -93375.28, -116743.98, -103824.09, 0.000, 0.000, 0.000, 18:40:36.983
149, -6426.55, -6505.70, -6544.84, -6483.03, -58947.65, -93375.80, -116744.37, -103823.83, 0.000, 0.000, 0.000, 18:40:36.983
150, -6434.53, -6512.20, -6550.20, -6488.06, -58952.19, -93380.35, -116748.68, -103827.63, 0.040, -0.010, 0.978, 18:40:36.983
151, -6435.42, -6513.01, -6550.60, -6488.87, -58952.86, -93381.30, -116749.66, -103828.70, 0.000, 0.000, 0.000, 18:40:36.983
152, -6429.14, -6507.93, -6546.29, -6485.09, -58949.46, -93378.01, -116746.71, -103826.35, 0.000, 0.000, 0.000, 18:40:36.983
153, -6421.25, -6501.36, -6540.77, -6479.73, -58944.83, -93373.16, -116742.09, -103822.22, 0.000, 0.000, 0.000, 18:40:36.984
154, -6425.68, -6504.92, -6543.83, -6482.27, -58947.47, -93375.33, -116744.19, -103823.67, 0.000, 0.000, 0.000, 18:40:36.984
155, -6434.82, -6512.60, -6550.38, -6488.51, -58953.21, -93381.02, -116749.70, -103828.59, 0.000, 0.000, 0.000, 18:40:36.984
156, -6437.15, -6514.82, -6552.30, -6490.70, -58955.16, -93383.33, -116752.03, -103830.96, 0.000, 0.000, 0.000, 18:40:36.984
157, -6427.49, -6506.41, -6544.68, -6483.50, -58948.41, -93376.69, -116745.59, -103825.10, 0.000, 0.000, 0.000, 18:40:36.984
158, -6419.87, -6500.04, -6539.36, -6478.34, -58943.98, -93371.99, -116741.16, -103821.13, 0.000, 0.000, 0.000, 18:40:36.985
159, -6426.60, -6505.81, -6544.79, -6483.15, -58948.90, -93376.47, -116745.51, -103825.01, 0.000, 0.000, 0.000, 18:40:36.985
160, -6433.26, -6511.06, -6548.86, -6486.86, -58952.10, -93379.80, -116748.55, -103827.47, 0.042, -0.004, 0.976, 18:40:36.985
161, -6434.22, -6511.91, -6549.42, -6487.75, -58952.84, -93380.73, -116749.66, -103828.70, 0.000, 0.000, 0.000, 18:40:36.985
162, -6427.76, -6506.79, -6545.08, -6483.95, -58949.44, -93377.41, -116746.63, -103826.27, 0.000, 0.000, 0.000, 18:40:36.985
163, -6421.14, -6501.43, -6540.68, -6479.84, -58945.95, -93373.76, -116743.16, -103823.29, 0.000, 0.000, 0.000, 18:40:36.986
164, -6426.04, -6505.36, -6544.23, -6482.77, -58948.90, -93376.45, -116745.66, -103825.17, 0.000, 0.000, 0.000, 18:40:36.986
165, -6435.13, -6512.94, -6550.60, -6488.80, -58954.45, -93382.03, -116751.07, -103829.98, 0.000, 0.000, 0.000, 18:40:36.986
166, -6434.22, -6512.09, -6549.31, -6487.86, -58953.37, -93381.18, -116750.27, -103829.30, 0.000, 0.000, 0.000, 18:40:36.986
167, -6427.22, -6506.28, -6544.41, -6483.41, -58949.37, -93377.25, -116746.55, -103826.33, 0.000, 0.000, 0.000, 18:40:36.986
168, -6419.38, -6499.80, -6539.05, -6478.09, -58944.66, -93372.38, -116741.88, -103822.09, 0.000, 0.000, 0.000, 18:40:36.986
169, -6422.62, -6502.21, -6540.95, -6479.46, -58946.06, -93373.47, -116742.87, -103822.44, 0.000, 0.000, 0.000, 18:40:36.986
170, -6432.43, -6510.46, -6548.03, -6486.19, -58952.43, -93379.84, -116749.13, -103828.01, 0.038, -0.006, 0.982, 18:40:36.986
171, -6432.41, -6510.37, -6547.68, -6486.12, -58952.23, -93379.86, -116749.20, -103828.16, 0.000, 0.000, 0.000, 18:40:36.986
172, -6425.28, -6504.42, -6542.67, -6481.42, -58947.98, -93375.82, -116745.30, -103824.99, 0.000, 0.000, 0.000, 18:40:36.987
173, -6418.33, -6498.70, -6537.97, -6476.84, -58944.16, -93371.75, -116741.48, -103821.68, 0.000, 0.000, 0.000, 18:40:36.987
174, -6424.49, -6503.93, -6542.69, -6481.04, -58948.41, -93375.59, -116745.19, -103824.79, 0.000, 0.000, 0.000, 18:40:36.987
175, -6435.00, -6512.81, -6550.45, -6488.62, -58955.50, -93382.66, -116752.12, -103831.07, 0.000, 0.000, 0.000, 18:40:36.987
176, -6436.83, -6514.66, -6551.97, -6490.41, -58957.15, -93384.53, -116754.16, -103833.21, 0.000, 0.000, 0.000, 18:40:36.987
177, -6429.75, -6508.92, -6546.98, -6486.01, -58953.11, -93380.60, -116750.49, -103830.20, 0.000, 0.000, 0.000, 18:40:36.987
178, -6421.30, -6501.72, -6540.84, -6479.97, -58947.79, -93375.10, -116745.03, -103825.39, 0.000, 0.000, 0.000, 18:40:36.987
179, -6427.83, -6507.26, -6545.91, -6484.44, -58952.21, -93379.26, -116749.08, -103828.81, 0.000, 0.000, 0.000, 18:40:36.987
180, -6438.22, -6516.07, -6553.62, -6491.86, -58959.12, -93386.23, -116755.95, -103834.89, 0.034, -0.004, 0.974, 18:40:36.988
181, -6438.49, -6516.29, -6553.51, -6491.97, -58959.18, -93386.59, -116756.23, -103835.43, 0.000, 0.000, 0.000, 18:40:36.988
182, -6429.95, -6509.03, -6547.07, -6486.03, -58953.59, -93381.09, -116751.05, -103830.87, 0.000, 0.000, 0.000, 18:40:36.988
183, -6421.88, -6502.21, -6541.26, -6480.42, -58948.61, -93375.91, -116746.17, -103826.35, 0.000, 0.000, 0.000, 18:40:36.988
184, -6426.42, -6505.83, -6544.34, -6482.97, -58951.20, -93378.14, -116748.25, -103827.90, 0.000, 0.000, 0.000, 18:40:36.988
185, -6434.78, -6512.67, -6550.04, -6488.33, -58956.12, -93383.04, -116753.04, -103831.96, 0.000, 0.000, 0.000, 18:40:36.988
186, -6436.90, -6514.77, -6551.85, -6490.43, -58957.95, -93385.27, -116755.34, -103834.35, 0.000, 0.000, 0.000, 18:40:36.988
187, -6429.52, -6508.74, -6546.58, -6485.67, -58953.66, -93381.05, -116751.52, -103831.02, 0.000, 0.000, 0.000, 18:40:36.988
188, -6420.96, -6501.36, -6540.34, -6479.48, -58948.28, -93375.23, -116745.95, -103825.99, 0.000, 0.000, 0.000, 18:40:36.988
189, -6427.40, -6506.68, -6545.24, -6483.88, -58952.61, -93379.26, -116749.69, -103829.26, 0.000, 0.000, 0.000, 18:40:36.989
190, -6436.36, -6514.17, -6551.54, -6489.92, -58958.18, -93384.89, -116755.09, -103834.11, 0.036, -0.004, 0.978, 18:40:36.989
191, -6436.90, -6514.77, -6551.72, -6490.32, -58958.58, -93385.56, -116755.79, -103834.94, 0.000, 0.000, 0.000, 18:40:36.989
192, -6429.90, -6509.12, -6546.87, -6485.96, -58954.69, -93381.72, -116752.19, -103831.98, 0.000, 0.000, 0.000, 18:40:36.989
