%OpenBCI Raw EEG Data
%
%Sample Rate = 250.0 Hz
%First Column = SampleIndex
%Last Column = Timestamp 
%Other Columns = EEG data in microvolts followed by Accel Data (in G) interleaved with Aux Data
0, 0.00, 0.00, 0.00, 0.00, 0.00, 0.00, 0.00, 0.00, 0.022, 0.006, 0.972, 17:36:26.891
1, -6499.40, -6579.35, -6616.65, -6555.97, -50105.70, -89522.55, -126760.02, -116532.83, 0.000, 0.000, 0.000, 17:36:27.379
2, -6504.07, -6583.62, -6620.41, -6559.92, -50109.41, -89526.47, -126763.71, -116536.59, 0.000, 0.000, 0.000, 17:36:27.379
3, -6504.76, -6584.18, -6620.74, -6560.17, -50109.75, -89526.69, -126763.94, -116536.72, 0.000, 0.000, 0.000, 17:36:27.380
4, -6502.14, -6581.74, -6618.51, -6557.80, -50107.67, -89524.48, -126761.86, -116534.39, 0.000, 0.000, 0.000, 17:36:27.380
5, -6500.71, -6580.58, -6617.79, -6556.93, -50107.16, -89523.78, -126761.25, -116533.81, 0.000, 0.000, 0.000, 17:36:27.380
6, -6499.51, -6579.46, -6616.65, -6555.72, -50106.08, -89522.78, -126760.13, -116532.73, 0.000, 0.000, 0.000, 17:36:27.380
7, -6499.51, -6579.17, -6615.83, -6555.10, -50105.14, -89522.04, -126759.17, -116531.98, 0.000, 0.000, 0.000, 17:36:27.380
8, -6499.37, -6578.83, -6615.31, -6554.63, -50104.54, -89521.46, -126758.57, -116531.22, 0.024, 0.008, 0.976, 17:36:27.380
9, -6498.46, -6578.03, -6614.77, -6554.00, -50104.20, -89520.88, -126758.13, -116530.73, 0.000, 0.000, 0.000, 17:36:27.380
10, -6494.66, -6574.74, -6611.89, -6550.98, -50101.61, -89518.06, -126755.42, -116527.93, 0.000, 0.000, 0.000, 17:36:27.381
11, -6494.90, -6574.97, -6612.03, -6551.27, -50101.88, -89518.38, -126755.66, -116528.24, 0.000, 0.000, 0.000, 17:36:27.381
12, -6498.37, -6578.07, -6614.55, -6553.98, -50104.29, -89521.05, -126758.05, -116530.86, 0.000, 0.000, 0.000, 17:36:27.381
13, -6499.84, -6579.24, -6615.62, -6555.12, -50105.37, -89522.17, -126759.13, -116531.84, 0.000, 0.000, 0.000, 17:36:27.381
14, -6499.26, -6578.83, -6615.58, -6554.78, -50105.41, -89521.95, -126759.02, -116531.58, 0.000, 0.000, 0.000, 17:36:27.381
15, -6498.41, -6578.36, -6615.49, -6554.65, -50105.70, -89521.95, -126759.22, -116531.62, 0.000, 0.000, 0.000, 17:36:27.381
16, -6498.48, -6578.54, -6615.62, -6554.81, -50105.84, -89522.33, -126759.40, -116531.95, 0.000, 0.000, 0.000, 17:36:27.381
17, -6502.14, -6581.83, -6618.37, -6557.69, -50108.45, -89525.26, -126762.08, -116534.82, 0.000, 0.000, 0.000, 17:36:27.381
18, -6503.22, -6582.79, -6619.09, -6558.38, -50109.12, -89525.87, -126762.70, -116535.29, 0.026, 0.004, 0.972, 17:36:27.382
19, -6500.31, -6579.95, -6616.54, -6555.74, -50106.75, -89523.34, -126760.29, -116532.65, 0.000, 0.000, 0.000, 17:36:27.382
20, -6496.47, -6576.42, -6613.57, -6552.70, -50104.05, -89520.37, -126757.34, -116529.77, 0.000, 0.000, 0.000, 17:36:27.382
21, -6496.29, -6576.29, -6613.37, -6552.53, -50103.80, -89520.32, -126757.16, -116529.67, 0.000, 0.000, 0.000, 17:36:27.382
22, -6499.33, -6579.15, -6615.60, -6555.03, -50106.11, -89522.78, -126759.35, -116531.95, 0.000, 0.000, 0.000, 17:36:27.382
23, -6503.51, -6583.17, -6619.40, -6558.83, -50109.88, -89526.42, -126763.16, -116535.64, 0.000, 0.000, 0.000, 17:36:27.382
24, -6499.82, -6579.55, -6616.16, -6555.41, -50106.82, -89523.09, -126759.95, -116532.34, 0.000, 0.000, 0.000, 17:36:27.383
25, -6496.20, -6576.26, -6613.39, -6552.44, -50104.29, -89520.48, -126757.32, -116529.59, 0.000, 0.000, 0.000, 17:36:27.383
26, -6495.19, -6575.39, -6612.34, -6551.56, -50103.29, -89519.65, -126756.42, -116528.76, 0.000, 0.000, 0.000, 17:36:27.383
27, -6496.78, -6576.64, -6613.01, -6552.37, -50103.85, -89520.41, -126757.03, -116529.52, 0.000, 0.000, 0.000, 17:36:27.383
28, -6500.24, -6579.82, -6616.12, -6555.48, -50106.89, -89523.36, -126760.00, -116532.52, 0.026, 0.004, 0.976, 17:36:27.383
29, -6501.14, -6580.82, -6617.44, -6556.62, -50108.30, -89524.63, -126761.25, -116533.66, 0.000, 0.000, 0.000, 17:36:27.383
30, -6497.14, -6577.25, -6614.33, -6553.35, -50105.39, -89521.57, -126758.33, -116530.62, 0.000, 0.000, 0.000, 17:36:27.383
31, -6495.01, -6575.12, -6612.18, -6551.30, -50103.29, -89519.49, -126756.13, -116528.55, 0.000, 0.000, 0.000, 17:36:27.383
32, -6498.59, -6578.32, -6614.84, -6554.22, -50105.95, -89522.35, -126758.77, -116531.33, 0.000, 0.000, 0.000, 17:36:27.384
33, -6497.52, -6577.09, -6613.34, -6552.73, -50104.43, -89520.97, -126757.27, -116529.81, 0.000, 0.000, 0.000, 17:36:27.384
34, -6495.51, -6575.23, -6611.78, -6551.01, -50103.02, -89519.29, -126755.76, -116528.11, 0.000, 0.000, 0.000, 17:36:27.384
35, -6494.79, -6574.97, -6612.00, -6551.12, -50103.47, -89519.59, -126756.11, -116528.45, 0.000, 0.000, 0.000, 17:36:27.384
36, -6496.60, -6576.87, -6613.79, -6552.93, -50105.37, -89521.64, -126757.95, -116530.46, 0.000, 0.000, 0.000, 17:36:27.384
37, -6499.24, -6579.15, -6615.60, -6554.74, -50107.00, -89523.41, -126759.60, -116532.27, 0.000, 0.000, 0.000, 17:36:27.384
38, -6499.75, -6579.39, -6615.76, -6554.85, -50107.07, -89523.36, -126759.69, -116532.13, 0.030, 0.004, 0.974, 17:36:27.384
39, -6497.96, -6577.78, -6614.53, -6553.46, -50105.97, -89522.16, -126758.51, -116530.70, 0.000, 0.000, 0.000, 17:36:27.385
40, -6495.66, -6575.86, -6613.23, -6551.99, -50104.83, -89520.70, -126757.21, -116529.45, 0.000, 0.000, 0.000, 17:36:27.385
41, -6496.18, -6576.53, -6613.57, -6552.50, -50105.37, -89521.37, -126757.77, -116530.28, 0.000, 0.000, 0.000, 17:36:27.385
42, -6497.00, -6577.05, -6613.41, -6552.57, -50105.10, -89521.33, -126757.63, -116530.15, 0.000, 0.000, 0.000, 17:36:27.385
43, -6496.80, -6576.58, -6612.81, -6551.99, -50104.50, -89520.72, -126756.91, -116529.34, 0.000, 0.000, 0.000, 17:36:27.385
44, -6496.06, -6576.02, -6612.50, -6551.43, -50104.38, -89520.34, -126756.65, -116529.01, 0.000, 0.000, 0.000, 17:36:27.385
45, -6494.43, -6574.70, -6611.71, -6550.58, -50103.94, -89519.65, -126755.91, -116528.24, 0.000, 0.000, 0.000, 17:36:27.385
46, -6495.22, -6575.59, -6612.47, -6551.50, -50104.65, -89520.63, -126756.63, -116529.09, 0.000, 0.000, 0.000, 17:36:27.386
47, -6497.81, -6577.83, -6614.26, -6553.42, -50106.26, -89522.53, -126758.39, -116530.91, 0.000, 0.000, 0.000, 17:36:27.386
48, -6500.42, -6580.15, -6616.41, -6555.57, -50108.36, -89524.57, -126760.52, -116532.88, 0.026, 0.002, 0.976, 17:36:27.386
49, -6497.96, -6577.87, -6614.46, -6553.51, -50106.62, -89522.53, -126758.57, -116530.88, 0.000, 0.000, 0.000, 17:36:27.386
50, -6493.65, -6574.03, -6611.15, -6550.04, -50103.51, -89519.27, -126755.30, -116527.62, 0.000, 0.000, 0.000, 17:36:27.386
51, -6496.60, -6577.09, -6614.02, -6553.04, -50106.60, -89522.42, -126758.39, -116530.77, 0.000, 0.000, 0.000, 17:36:27.386
52, -6501.83, -6581.90, -6618.17, -6557.49, -50110.73, -89526.71, -126762.59, -116535.09, 0.000, 0.000, 0.000, 17:36:27.386
53, -6501.56, -6581.27, -6617.44, -6556.59, -50109.86, -89525.87, -126761.68, -116534.10, 0.000, 0.000, 0.000, 17:36:27.387
54, -6499.44, -6579.28, -6615.87, -6554.76, -50108.45, -89524.30, -126760.12, -116532.41, 0.000, 0.000, 0.000, 17:36:27.387
55, -6495.82, -6576.06, -6613.05, -6551.88, -50106.04, -89521.64, -126757.50, -116529.77, 0.000, 0.000, 0.000, 17:36:27.387
56, -6498.55, -6578.99, -6615.87, -6554.81, -50108.95, -89524.59, -126760.36, -116532.72, 0.000, 0.000, 0.000, 17:36:27.387
57, -6502.06, -6582.28, -6618.53, -6557.71, -50111.43, -89527.31, -126762.98, -116535.38, 0.000, 0.000, 0.000, 17:36:27.387
58, -6503.93, -6583.75, -6619.87, -6559.03, -50112.63, -89528.59, -126764.23, -116536.54, 0.026, 0.004, 0.978, 17:36:27.387
59, -6500.11, -6580.11, -6616.50, -6555.59, -50109.41, -89525.17, -126760.92, -116533.19, 0.000, 0.000, 0.000, 17:36:27.387
60, -6496.22, -6576.60, -6613.59, -6552.44, -50106.66, -89522.24, -126758.08, -116530.39, 0.000, 0.000, 0.000, 17:36:27.388
61, -6497.25, -6577.81, -6614.69, -6553.58, -50107.85, -89523.49, -126759.29, -116531.64, 0.000, 0.000, 0.000, 17:36:27.388
62, -6498.57, -6578.70, -6615.02, -6554.16, -50108.09, -89524.05, -126759.63, -116532.07, 0.000, 0.000, 0.000, 17:36:27.388
63, -6500.83, -6580.80, -6616.94, -6556.01, -50109.97, -89525.91, -126761.37, -116533.70, 0.000, 0.000, 0.000, 17:36:27.388
64, -6500.36, -6580.42, -6616.70, -6555.79, -50110.08, -89525.75, -126761.25, -116533.41, 0.000, 0.000, 0.000, 17:36:27.388
65, -6497.50, -6578.05, -6614.86, -6553.82, -50108.45, -89523.98, -126759.55, -116531.77, 0.000, 0.000, 0.000, 17:36:27.388
66, -6498.34, -6578.92, -6615.71, -6554.76, -50109.30, -89524.97, -126760.47, -116532.78, 0.000, 0.000, 0.000, 17:36:27.389
67, -6501.81, -6581.94, -6618.19, -6557.40, -50111.54, -89527.59, -126762.86, -116535.27, 0.000, 0.000, 0.000, 17:36:27.389
68, -6502.88, -6582.68, -6618.73, -6557.98, -50112.09, -89528.03, -126763.45, -116535.66, 0.000, 0.000, 0.000, 17:36:27.389
69, -6502.55, -6582.50, -6618.89, -6557.98, -50112.45, -89528.16, -126763.65, -116535.69, 0.028, 0.002, 0.980, 17:36:27.389
70, -6497.79, -6578.16, -6615.09, -6553.98, -50108.86, -89524.41, -126759.91, -116531.84, 0.000, 0.000, 0.000, 17:36:27.389
71, -6500.54, -6580.98, -6617.79, -6556.84, -50111.69, -89527.34, -126762.70, -116534.80, 0.000, 0.000, 0.000, 17:36:27.390
72, -6504.25, -6584.42, -6620.61, -6559.97, -50114.49, -89530.40, -126765.50, -116537.72, 0.000, 0.000, 0.000, 17:36:27.390
73, -6503.02, -6582.86, -6619.00, -6558.31, -50112.81, -89528.59, -126763.71, -116535.98, 0.000, 0.000, 0.000, 17:36:27.390
74, -6500.42, -6580.44, -6616.83, -6556.06, -50110.73, -89526.40, -126761.68, -116533.77, 0.000, 0.000, 0.000, 17:36:27.390
75, -6499.44, -6579.95, -6616.70, -6555.79, -50110.87, -89526.31, -126761.74, -116533.70, 0.000, 0.000, 0.000, 17:36:27.390
76, -6500.83, -6581.40, -6617.95, -6557.15, -50112.27, -89527.85, -126763.13, -116535.22, 0.000, 0.000, 0.000, 17:36:27.390
77, -6503.55, -6583.71, -6619.69, -6559.10, -50113.91, -89529.73, -126764.90, -116537.01, 0.000, 0.000, 0.000, 17:36:27.390
78, -6504.04, -6583.95, -6619.74, -6559.28, -50113.93, -89529.82, -126764.78, -116536.96, 0.000, 0.000, 0.000, 17:36:27.390
79, -6501.54, -6581.54, -6617.95, -6557.20, -50112.14, -89527.77, -126762.86, -116534.91, 0.028, 0.006, 0.984, 17:36:27.391
80, -6498.28, -6578.68, -6615.58, -6554.67, -50109.99, -89525.35, -126760.59, -116532.63, 0.000, 0.000, 0.000, 17:36:27.391
81, -6496.94, -6577.49, -6614.19, -6553.49, -50108.83, -89524.26, -126759.47, -116531.58, 0.000, 0.000, 0.000, 17:36:27.391
82, -6499.46, -6579.73, -6615.89, -6555.43, -50110.35, -89526.04, -126761.14, -116533.21, 0.000, 0.000, 0.000, 17:36:27.391
83, -6501.14, -6581.18, -6617.10, -6556.57, -50111.47, -89527.27, -126762.20, -116534.23, 0.000, 0.000, 0.000, 17:36:27.391
84, -6498.90, -6579.15, -6615.29, -6554.63, -50109.97, -89525.39, -126760.45, -116532.42, 0.000, 0.000, 0.000, 17:36:27.391
85, -6497.29, -6577.96, -6614.44, -6553.67, -50109.50, -89524.70, -126759.82, -116531.76, 0.000, 0.000, 0.000, 17:36:27.391
86, -6497.16, -6577.96, -6614.42, -6553.69, -50109.39, -89524.73, -126759.78, -116531.80, 0.000, 0.000, 0.000, 17:36:27.392
87, -6499.66, -6580.13, -6616.09, -6555.65, -50111.02, -89526.63, -126761.43, -116533.50, 0.000, 0.000, 0.000, 17:36:27.392
88, -6504.60, -6584.80, -6620.63, -6560.17, -50115.40, -89531.07, -126765.88, -116537.81, 0.000, 0.000, 0.000, 17:36:27.392
89, -6504.89, -6585.14, -6621.35, -6560.71, -50116.25, -89531.72, -126766.71, -116538.55, 0.026, 0.002, 0.978, 17:36:27.392
90, -6500.24, -6580.93, -6617.50, -6556.86, -50112.86, -89528.03, -126763.02, -116534.98, 0.000, 0.000, 0.000, 17:36:27.392
91, -6500.85, -6581.69, -6618.13, -6557.53, -50113.59, -89528.91, -126763.69, -116535.84, 0.000, 0.000, 0.000, 17:36:27.392
92, -6503.87, -6584.29, -6620.21, -6559.79, -50115.65, -89531.16, -126765.81, -116537.92, 0.000, 0.000, 0.000, 17:36:27.392
93, -6506.84, -6586.97, -6622.73, -6562.34, -50118.15, -89533.62, -126768.27, -116540.34, 0.000, 0.000, 0.000, 17:36:27.393
94, -6503.20, -6583.42, -6619.56, -6558.98, -50114.89, -89530.27, -126764.94, -116536.96, 0.000, 0.000, 0.000, 17:36:27.393
95, -6499.84, -6580.44, -6617.03, -6556.28, -50112.65, -89527.80, -126762.59, -116534.62, 0.000, 0.000, 0.000, 17:36:27.393
96, -6501.23, -6582.05, -6618.46, -6557.80, -50114.26, -89529.48, -126764.13, -116536.23, 0.000, 0.000, 0.000, 17:36:27.393
97, -6502.84, -6583.39, -6619.18, -6558.76, -50114.98, -89530.40, -126764.96, -116536.98, 0.000, 0.000, 0.000, 17:36:27.393
98, -6502.39, -6582.72, -6618.37, -6557.96, -50114.02, -89529.55, -126764.05, -116536.00, 0.000, 0.000, 0.000, 17:36:27.393
99, -6501.27, -6581.81, -6617.79, -6557.26, -50113.64, -89528.84, -126763.53, -116535.42, 0.026, 0.002, 0.978, 17:36:27.393
100, -6499.91, -6580.73, -6617.21, -6556.59, -50113.30, -89528.37, -126763.16, -116534.91, 0.000, 0.000, 0.000, 17:36:27.394
101, -6498.14, -6579.06, -6615.42, -6554.83, -50111.49, -89526.76, -126761.43, -116533.32, 0.000, 0.000, 0.000, 17:36:27.394
102, -6500.54, -6581.07, -6616.99, -6556.57, -50113.01, -89528.48, -126762.91, -116534.98, 0.000, 0.000, 0.000, 17:36:27.394
103, -6503.71, -6584.00, -6619.78, -6559.45, -50115.65, -89531.27, -126765.48, -116537.50, 0.000, 0.000, 0.000, 17:36:27.394
104, -6501.88, -6582.36, -6618.40, -6557.93, -50114.42, -89529.66, -126764.13, -116536.07, 0.000, 0.000, 0.000, 17:36:27.394
105, -6496.85, -6577.67, -6614.26, -6553.55, -50110.46, -89525.48, -126760.09, -116531.87, 0.000, 0.000, 0.000, 17:36:27.394
106, -6498.46, -6579.46, -6615.83, -6555.21, -50112.16, -89527.38, -126761.86, -116533.70, 0.000, 0.000, 0.000, 17:36:27.394
107, -6502.39, -6583.01, -6618.75, -6558.38, -50115.16, -89530.58, -126764.78, -116536.78, 0.000, 0.000, 0.000, 17:36:27.394
108, -6502.01, -6582.43, -6618.04, -6557.55, -50114.33, -89529.69, -126763.98, -116535.80, 0.000, 0.000, 0.000, 17:36:27.395
109, -6499.55, -6580.11, -6616.12, -6555.45, -50112.48, -89527.59, -126762.08, -116533.70, 0.030, 0.004, 0.978, 17:36:27.395
110, -6496.33, -6577.20, -6613.64, -6552.82, -50110.35, -89525.30, -126759.66, -116531.38, 0.000, 0.000, 0.000, 17:36:27.395
111, -6493.90, -6574.92, -6611.09, -6550.38, -50107.94, -89522.98, -126757.32, -116529.12, 0.000, 0.000, 0.000, 17:36:27.395
112, -6496.67, -6577.38, -6612.96, -6552.53, -50109.68, -89525.10, -126759.29, -116531.09, 0.000, 0.000, 0.000, 17:36:27.395
113, -6498.97, -6579.55, -6614.98, -6554.56, -50111.60, -89527.05, -126761.19, -116532.98, 0.000, 0.000, 0.000, 17:36:27.395
114, -6497.90, -6578.50, -6614.37, -6553.62, -50111.20, -89526.35, -126760.59, -116532.27, 0.000, 0.000, 0.000, 17:36:27.395
115, -6496.65, -6577.65, -6614.02, -6553.17, -50111.13, -89526.04, -126760.41, -116532.09, 0.000, 0.000, 0.000, 17:36:27.395
116, -6496.51, -6577.60, -6613.90, -6553.06, -50110.98, -89526.02, -126760.25, -116532.02, 0.000, 0.000, 0.000, 17:36:27.396
117, -6496.87, -6577.43, -6613.32, -6552.66, -50110.29, -89525.46, -126759.60, -116531.42, 0.000, 0.000, 0.000, 17:36:27.396
118, -6499.31, -6579.77, -6615.42, -6554.81, -50112.41, -89527.59, -126761.59, -116533.41, 0.000, 0.000, 0.000, 17:36:27.396
119, -6496.58, -6577.25, -6613.21, -6552.46, -50110.26, -89525.26, -126759.47, -116531.09, 0.028, 0.006, 0.972, 17:36:27.396
120, -6494.57, -6575.53, -6611.94, -6551.09, -50109.23, -89524.03, -126758.33, -116529.97, 0.000, 0.000, 0.000, 17:36:27.396
121, -6494.01, -6575.08, -6611.35, -6550.71, -50108.79, -89523.78, -126757.88, -116529.59, 0.000, 0.000, 0.000, 17:36:27.860
122, -6496.74, -6577.58, -6613.23, -6552.79, -50110.69, -89525.93, -126759.98, -116531.64, 0.000, 0.000, 0.000, 17:36:27.860
123, -6500.04, -6580.51, -6616.05, -6555.63, -50113.55, -89528.77, -126762.64, -116534.44, 0.000, 0.000, 0.000, 17:36:27.860
124, -6498.48, -6579.17, -6615.09, -6554.45, -50112.63, -89527.59, -126761.59, -116533.27, 0.000, 0.000, 0.000, 17:36:27.861
125, -6495.19, -6576.26, -6612.54, -6551.72, -50110.39, -89524.99, -126759.11, -116530.64, 0.000, 0.000, 0.000, 17:36:27.861
126, -6495.17, -6576.24, -6612.36, -6551.79, -50110.38, -89525.08, -126759.06, -116530.77, 0.000, 0.000, 0.000, 17:36:27.861
127, -6495.80, -6576.49, -6612.07, -6551.63, -50109.97, -89525.04, -126758.80, -116530.55, 0.000, 0.000, 0.000, 17:36:27.861
128, -6497.85, -6578.23, -6613.86, -6553.22, -50111.52, -89526.60, -126760.45, -116532.09, 0.000, 0.000, 0.000, 17:36:27.861
129, -6498.64, -6579.17, -6615.20, -6554.54, -50113.04, -89527.92, -126761.74, -116533.32, 0.026, 0.002, 0.976, 17:36:27.861
130, -6496.00, -6577.00, -6613.43, -6552.66, -50111.52, -89526.29, -126760.25, -116531.69, 0.000, 0.000, 0.000, 17:36:27.861
131, -6495.80, -6577.02, -6613.37, -6552.55, -50111.43, -89526.31, -126760.13, -116531.69, 0.000, 0.000, 0.000, 17:36:27.861
132, -6499.17, -6580.04, -6615.83, -6555.23, -50113.88, -89529.04, -126762.62, -116534.28, 0.000, 0.000, 0.000, 17:36:27.862
133, -6498.55, -6579.15, -6614.80, -6554.11, -50112.77, -89527.83, -126761.45, -116533.09, 0.000, 0.000, 0.000, 17:36:27.862
134, -6497.79, -6578.61, -6614.57, -6553.87, -50112.70, -89527.56, -126761.16, -116532.85, 0.000, 0.000, 0.000, 17:36:27.862
135, -6494.54, -6575.79, -6612.23, -6551.36, -50110.53, -89525.15, -126758.88, -116530.50, 0.000, 0.000, 0.000, 17:36:27.862
136, -6493.09, -6574.47, -6610.80, -6549.96, -50109.23, -89524.01, -126757.61, -116529.25, 0.000, 0.000, 0.000, 17:36:27.862
137, -6497.79, -6578.68, -6614.44, -6553.91, -50112.88, -89527.98, -126761.32, -116533.03, 0.000, 0.000, 0.000, 17:36:27.862
138, -6499.22, -6579.82, -6615.54, -6554.98, -50113.88, -89528.91, -126762.30, -116533.99, 0.000, 0.000, 0.000, 17:36:27.863
139, -6497.52, -6578.39, -6614.35, -6553.75, -50112.81, -89527.63, -126761.08, -116532.78, 0.028, 0.000, 0.976, 17:36:27.863
140, -6496.09, -6577.29, -6613.68, -6552.91, -50112.39, -89527.05, -126760.70, -116532.09, 0.000, 0.000, 0.000, 17:36:27.863
141, -6496.69, -6577.89, -6614.35, -6553.67, -50113.14, -89527.85, -126761.37, -116532.98, 0.000, 0.000, 0.000, 17:36:27.863
142, -6496.22, -6577.02, -6612.96, -6552.41, -50111.60, -89526.58, -126759.89, -116531.62, 0.000, 0.000, 0.000, 17:36:27.863
143, -6496.80, -6577.36, -6613.14, -6552.57, -50111.87, -89526.76, -126760.00, -116531.69, 0.000, 0.000, 0.000, 17:36:27.863
144, -6497.03, -6577.60, -6613.75, -6553.08, -50112.52, -89527.36, -126760.67, -116532.20, 0.000, 0.000, 0.000, 17:36:27.863
145, -6494.97, -6575.91, -6612.54, -6551.77, -50111.54, -89526.09, -126759.55, -116530.97, 0.000, 0.000, 0.000, 17:36:27.863
146, -6495.93, -6576.98, -6613.46, -6552.73, -50112.59, -89527.25, -126760.60, -116532.07, 0.000, 0.000, 0.000, 17:36:27.864
147, -6496.33, -6577.11, -6613.12, -6552.44, -50112.07, -89527.09, -126760.27, -116531.73, 0.000, 0.000, 0.000, 17:36:27.864
148, -6497.03, -6577.51, -6613.43, -6552.77, -50112.43, -89527.31, -126760.47, -116531.95, 0.000, 0.000, 0.000, 17:36:27.864
149, -6495.13, -6575.75, -6611.94, -6551.16, -50111.18, -89525.77, -126759.06, -116530.46, 0.024, 0.002, 0.976, 17:36:27.864
150, -6493.38, -6574.34, -6611.02, -6550.18, -50110.57, -89524.91, -126758.26, -116529.61, 0.000, 0.000, 0.000, 17:36:27.864
151, -6492.33, -6573.36, -6609.84, -6549.06, -50109.52, -89524.01, -126757.14, -116528.63, 0.000, 0.000, 0.000, 17:36:27.864
152, -6495.62, -6576.31, -6612.23, -6551.54, -50111.69, -89526.49, -126759.40, -116531.06, 0.000, 0.000, 0.000, 17:36:27.864
153, -6498.48, -6578.92, -6614.71, -6554.09, -50114.11, -89528.88, -126761.81, -116533.38, 0.000, 0.000, 0.000, 17:36:27.864
154, -6495.19, -6575.75, -6611.94, -6551.21, -50111.43, -89526.04, -126759.13, -116530.50, 0.000, 0.000, 0.000, 17:36:27.865
155, -6492.60, -6573.54, -6610.08, -6549.22, -50109.79, -89524.26, -126757.43, -116528.71, 0.000, 0.000, 0.000, 17:36:27.865
156, -6492.56, -6573.47, -6609.90, -6549.26, -50109.84, -89524.34, -126757.38, -116528.83, 0.000, 0.000, 0.000, 17:36:27.865
157, -6494.99, -6575.46, -6611.47, -6550.96, -50111.22, -89526.02, -126758.84, -116530.34, 0.000, 0.000, 0.000, 17:36:27.865
158, -6498.23, -6578.34, -6614.17, -6553.67, -50114.04, -89528.68, -126761.43, -116532.91, 0.000, 0.000, 0.000, 17:36:27.865
159, -6497.12, -6577.27, -6613.46, -6552.86, -50113.37, -89527.98, -126760.78, -116532.09, 0.026, 0.004, 0.970, 17:36:27.865
160, -6492.58, -6573.18, -6609.79, -6549.15, -50110.06, -89524.45, -126757.38, -116528.55, 0.000, 0.000, 0.000, 17:36:27.865
161, -6492.82, -6573.45, -6609.99, -6549.49, -50110.39, -89524.84, -126757.59, -116529.01, 0.000, 0.000, 0.000, 17:36:27.865
162, -6496.31, -6576.53, -6612.67, -6552.17, -50112.86, -89527.48, -126760.25, -116531.73, 0.000, 0.000, 0.000, 17:36:27.866
163, -6498.88, -6578.74, -6614.75, -6554.22, -50114.82, -89529.48, -126762.30, -116533.66, 0.000, 0.000, 0.000, 17:36:27.866
164, -6496.89, -6576.96, -6613.34, -6552.61, -50113.57, -89527.95, -126760.88, -116532.13, 0.000, 0.000, 0.000, 17:36:27.866
165, -6493.61, -6574.16, -6611.00, -6550.00, -50111.43, -89525.64, -126758.55, -116529.72, 0.000, 0.000, 0.000, 17:36:27.866
166, -6492.80, -6573.51, -6610.17, -6549.31, -50110.73, -89525.06, -126757.74, -116529.05, 0.000, 0.000, 0.000, 17:36:27.866
167, -6495.06, -6575.48, -6611.56, -6550.94, -50111.98, -89526.58, -126759.20, -116530.62, 0.000, 0.000, 0.000, 17:36:27.866
168, -6497.05, -6577.02, -6613.08, -6552.37, -50113.44, -89528.08, -126760.56, -116531.89, 0.000, 0.000, 0.000, 17:36:27.866
169, -6495.39, -6575.50, -6611.87, -6551.07, -50112.41, -89526.80, -126759.42, -116530.64, 0.000, 0.000, 0.000, 17:36:27.866
170, -6490.97, -6571.46, -6608.16, -6547.45, -50109.10, -89523.25, -126755.94, -116527.20, 0.026, 0.008, 0.974, 17:36:27.867
171, -6490.07, -6570.76, -6607.26, -6546.58, -50108.27, -89522.55, -126755.09, -116526.48, 0.000, 0.000, 0.000, 17:36:27.867
172, -6493.38, -6573.71, -6609.79, -6549.19, -50110.62, -89525.20, -126757.61, -116528.96, 0.000, 0.000, 0.000, 17:36:27.867
173, -6496.40, -6576.49, -6612.41, -6551.77, -50113.23, -89527.80, -126760.07, -116531.42, 0.000, 0.000, 0.000, 17:36:27.867
174, -6495.57, -6575.84, -6612.12, -6551.27, -50112.95, -89527.41, -126759.80, -116530.99, 0.000, 0.000, 0.000, 17:36:27.867
175, -6492.42, -6573.11, -6609.88, -6548.93, -50110.91, -89525.10, -126757.61, -116528.85, 0.000, 0.000, 0.000, 17:36:27.867
176, -6491.53, -6572.28, -6608.99, -6548.10, -50110.22, -89524.48, -126756.85, -116528.13, 0.000, 0.000, 0.000, 17:36:27.867
177, -6494.14, -6574.47, -6610.77, -6550.09, -50111.76, -89526.34, -126758.66, -116529.95, 0.000, 0.000, 0.000, 17:36:27.868
178, -6497.88, -6577.87, -6614.04, -6553.35, -50115.00, -89529.64, -126761.86, -116533.09, 0.000, 0.000, 0.000, 17:36:27.868
179, -6493.61, -6573.80, -6610.26, -6549.55, -50111.47, -89525.80, -126758.13, -116529.25, 0.000, 0.000, 0.000, 17:36:27.868
180, -6491.21, -6571.77, -6608.72, -6547.88, -50110.13, -89524.26, -126756.60, -116527.69, 0.032, 0.004, 0.970, 17:36:27.868
181, -6491.44, -6572.06, -6608.83, -6548.03, -50110.35, -89524.59, -126756.85, -116528.06, 0.000, 0.000, 0.000, 17:36:27.868
182, -6494.75, -6574.94, -6611.33, -6550.60, -50112.72, -89527.16, -126759.40, -116530.62, 0.000, 0.000, 0.000, 17:36:27.868
183, -6493.65, -6573.58, -6609.84, -6549.08, -50111.11, -89525.55, -126757.74, -116528.89, 0.000, 0.000, 0.000, 17:36:27.868
184, -6491.42, -6571.52, -6607.98, -6547.12, -50109.57, -89523.67, -126756.00, -116527.06, 0.000, 0.000, 0.000, 17:36:27.868
185, -6488.80, -6569.20, -6606.08, -6545.08, -50108.07, -89521.88, -126754.21, -116525.30, 0.000, 0.000, 0.000, 17:36:27.870
186, -6489.43, -6569.98, -6606.86, -6545.84, -50108.86, -89522.82, -126754.99, -116526.21, 0.000, 0.000, 0.000, 17:36:27.870
187, -6492.04, -6572.22, -6608.67, -6547.83, -50110.42, -89524.74, -126756.91, -116528.00, 0.000, 0.000, 0.000, 17:36:27.870
188, -6492.85, -6572.66, -6609.01, -6548.30, -50110.80, -89525.02, -126757.16, -116528.29, 0.000, 0.000, 0.000, 17:36:27.870
189, -6492.71, -6572.66, -6609.34, -6548.52, -50111.27, -89525.28, -126757.37, -116528.52, 0.000, 0.000, 0.000, 17:36:27.870
190, -6491.44, -6571.73, -6609.01, -6547.99, -50111.09, -89524.88, -126757.03, -116528.13, 0.026, -0.002, 0.980, 17:36:27.871
191, -6490.07, -6570.45, -6607.67, -6546.69, -50109.75, -89523.70, -126755.76, -116526.88, 0.000, 0.000, 0.000, 17:36:27.871
192, -6491.64, -6571.61, -6608.23, -6547.47, -50110.29, -89524.48, -126756.36, -116527.48, 0.000, 0.000, 0.000, 17:36:27.871
193, -6492.76, -6572.40, -6608.92, -6548.10, -50111.00, -89525.22, -126756.94, -116528.11, 0.000, 0.000, 0.000, 17:36:27.871
194, -6492.20, -6572.06, -6608.78, -6547.85, -50111.02, -89525.08, -126756.80, -116527.93, 0.000, 0.000, 0.000, 17:36:27.871
195, -6491.82, -6571.99, -6609.34, -6548.19, -50111.69, -89525.53, -126757.34, -116528.45, 0.000, 0.000, 0.000, 17:36:27.871
196, -6493.43, -6573.74, -6611.00, -6549.87, -50113.30, -89527.23, -126759.06, -116530.16, 0.000, 0.000, 0.000, 17:36:27.871
197, -6494.43, -6574.32, -6611.04, -6550.11, -50113.30, -89527.38, -126759.06, -116530.21, 0.000, 0.000, 0.000, 17:36:27.872
198, -6495.06, -6574.68, -6611.15, -6550.33, -50113.44, -89527.45, -126759.11, -116530.30, 0.000, 0.000, 0.000, 17:36:27.872
199, -6494.37, -6574.07, -6611.00, -6549.93, -50113.37, -89527.23, -126758.98, -116530.08, 0.000, 0.000, 0.000, 17:36:27.872
200, -6492.51, -6572.69, -6609.99, -6548.93, -50112.65, -89526.42, -126758.23, -116529.25, 0.026, -0.002, 0.984, 17:36:27.872
201, -6494.01, -6574.39, -6611.44, -6550.51, -50114.22, -89528.14, -126759.78, -116530.86, 0.000, 0.000, 0.000, 17:36:27.872
202, -6497.36, -6577.36, -6613.93, -6553.17, -50116.68, -89530.63, -126762.13, -116533.41, 0.000, 0.000, 0.000, 17:36:27.872
203, -6498.34, -6578.14, -6614.57, -6553.84, -50117.19, -89531.20, -126762.70, -116533.88, 0.000, 0.000, 0.000, 17:36:27.873
204, -6498.34, -6578.25, -6615.02, -6554.05, -50117.75, -89531.63, -126763.16, -116534.19, 0.000, 0.000, 0.000, 17:36:27.873
205, -6495.44, -6575.75, -6612.92, -6551.81, -50116.03, -89529.59, -126761.19, -116532.20, 0.000, 0.000, 0.000, 17:36:27.873
206, -6494.12, -6574.61, -6611.56, -6550.65, -50114.73, -89528.37, -126759.95, -116531.04, 0.000, 0.000, 0.000, 17:36:27.873
207, -6496.80, -6576.98, -6613.39, -6552.64, -50116.48, -89530.34, -126761.70, -116532.88, 0.000, 0.000, 0.000, 17:36:27.873
208, -6498.97, -6578.77, -6615.11, -6554.38, -50118.11, -89532.01, -126763.38, -116534.37, 0.000, 0.000, 0.000, 17:36:27.874
209, -6497.43, -6577.36, -6613.93, -6553.15, -50117.17, -89530.85, -126762.28, -116533.14, 0.000, 0.000, 0.000, 17:36:27.874
210, -6492.42, -6572.75, -6609.70, -6548.93, -50113.23, -89526.76, -126758.26, -116529.07, 0.030, 0.000, 0.984, 17:36:27.874
211, -6491.08, -6571.55, -6608.45, -6547.70, -50111.92, -89525.66, -126757.09, -116528.00, 0.000, 0.000, 0.000, 17:36:27.874
212, -6494.50, -6574.68, -6611.13, -6550.49, -50114.49, -89528.44, -126759.66, -116530.64, 0.000, 0.000, 0.000, 17:36:27.874
213, -6495.91, -6575.82, -6612.18, -6551.45, -50115.43, -89529.40, -126760.45, -116531.44, 0.000, 0.000, 0.000, 17:36:27.874
214, -6494.39, -6574.39, -6610.95, -6550.22, -50114.49, -89528.12, -126759.35, -116530.28, 0.000, 0.000, 0.000, 17:36:27.874
215, -6490.37, -6570.65, -6607.76, -6546.87, -50111.45, -89524.84, -126756.18, -116527.04, 0.000, 0.000, 0.000, 17:36:27.874
216, -6489.09, -6569.58, -6606.53, -6545.64, -50110.29, -89523.78, -126754.93, -116525.92, 0.000, 0.000, 0.000, 17:36:27.875
217, -6493.83, -6573.94, -6610.51, -6549.75, -50114.11, -89527.72, -126758.84, -116529.84, 0.000, 0.000, 0.000, 17:36:27.875
218, -6495.64, -6575.48, -6611.89, -6551.07, -50115.40, -89529.04, -126760.13, -116531.09, 0.000, 0.000, 0.000, 17:36:27.875
219, -6494.41, -6574.41, -6611.06, -6550.22, -50114.82, -89528.37, -126759.45, -116530.34, 0.000, 0.000, 0.000, 17:36:27.875
220, -6491.26, -6571.66, -6608.72, -6547.88, -50112.83, -89526.09, -126757.21, -116528.11, 0.034, -0.002, 0.982, 17:36:27.875
221, -6489.96, -6570.32, -6607.35, -6546.49, -50111.40, -89524.86, -126755.82, -116526.84, 0.000, 0.000, 0.000, 17:36:27.875
222, -6493.49, -6573.54, -6610.06, -6549.31, -50113.88, -89527.56, -126758.33, -116529.43, 0.000, 0.000, 0.000, 17:36:27.875
223, -6496.47, -6576.29, -6612.67, -6551.94, -50116.50, -89530.09, -126760.85, -116531.84, 0.000, 0.000, 0.000, 17:36:27.876
224, -6495.46, -6575.48, -6612.14, -6551.32, -50116.10, -89529.44, -126760.25, -116531.17, 0.000, 0.000, 0.000, 17:36:27.876
225, -6492.06, -6572.53, -6609.63, -6548.64, -50113.82, -89526.98, -126757.90, -116528.73, 0.000, 0.000, 0.000, 17:36:27.876
226, -6491.30, -6571.86, -6608.76, -6547.90, -50113.08, -89526.38, -126757.09, -116528.11, 0.000, 0.000, 0.000, 17:36:27.876
227, -6494.95, -6575.08, -6611.51, -6550.78, -50115.67, -89529.15, -126759.82, -116530.84, 0.000, 0.000, 0.000, 17:36:27.876
228, -6497.25, -6577.13, -6613.48, -6552.73, -50117.59, -89531.01, -126761.68, -116532.65, 0.000, 0.000, 0.000, 17:36:27.876
229, -6497.83, -6578.05, -6614.69, -6553.73, -50119.02, -89532.14, -126762.84, -116533.79, 0.000, 0.000, 0.000, 17:36:27.876
230, -6495.28, -6575.84, -6612.92, -6551.99, -50117.59, -89530.40, -126761.23, -116532.18, 0.032, 0.000, 0.980, 17:36:27.876
231, -6492.91, -6573.47, -6610.39, -6549.60, -50115.14, -89528.16, -126758.82, -116529.85, 0.000, 0.000, 0.000, 17:36:27.877
232, -6495.62, -6575.88, -6612.29, -6551.68, -50116.88, -89530.22, -126760.65, -116531.73, 0.000, 0.000, 0.000, 17:36:27.877
233, -6496.67, -6576.71, -6613.01, -6552.32, -50117.48, -89530.85, -126761.23, -116532.24, 0.000, 0.000, 0.000, 17:36:27.877
234, -6495.01, -6575.17, -6611.80, -6551.05, -50116.41, -89529.55, -126760.07, -116530.95, 0.000, 0.000, 0.000, 17:36:27.877
235, -6491.93, -6572.51, -6609.57, -6548.70, -50114.46, -89527.25, -126757.90, -116528.83, 0.000, 0.000, 0.000, 17:36:27.877
236, -6491.77, -6572.40, -6609.23, -6548.55, -50114.26, -89527.18, -126757.72, -116528.76, 0.000, 0.000, 0.000, 17:36:27.877
237, -6495.28, -6575.68, -6612.00, -6551.45, -50116.92, -89530.06, -126760.41, -116531.46, 0.000, 0.000, 0.000, 17:36:27.877
238, -6498.01, -6578.25, -6614.26, -6553.75, -50119.20, -89532.39, -126762.75, -116533.74, 0.000, 0.000, 0.000, 17:36:27.877
239, -6496.49, -6576.78, -6613.21, -6552.46, -50118.18, -89531.16, -126761.61, -116532.54, 0.000, 0.000, 0.000, 17:36:27.878
240, -6494.14, -6574.85, -6611.74, -6550.85, -50116.92, -89529.64, -126760.25, -116531.06, 0.028, 0.000, 0.972, 17:36:27.878
241, -6495.80, -6576.64, -6613.41, -6552.61, -50118.67, -89531.52, -126761.97, -116532.89, 0.000, 0.000, 0.000, 17:36:28.342
242, -6497.96, -6578.43, -6614.69, -6554.09, -50119.88, -89532.91, -126763.27, -116534.26, 0.000, 0.000, 0.000, 17:36:28.342
243, -6497.79, -6578.05, -6614.13, -6553.51, -50119.32, -89532.30, -126762.73, -116533.59, 0.000, 0.000, 0.000, 17:36:28.342
244, -6493.16, -6573.63, -6610.06, -6549.19, -50115.36, -89528.10, -126758.55, -116529.27, 0.000, 0.000, 0.000, 17:36:28.342
245, -6490.63, -6571.46, -6608.34, -6547.36, -50113.77, -89526.45, -126756.88, -116527.59, 0.000, 0.000, 0.000, 17:36:28.343
246, -6493.16, -6574.05, -6610.77, -6549.87, -50116.32, -89529.13, -126759.51, -116530.23, 0.000, 0.000, 0.000, 17:36:28.343
247, -6494.43, -6575.10, -6611.27, -6550.54, -50116.77, -89529.73, -126759.94, -116530.80, 0.000, 0.000, 0.000, 17:36:28.343
248, -6496.31, -6576.64, -6612.67, -6551.90, -50118.09, -89531.12, -126761.23, -116532.13, 0.000, 0.000, 0.000, 17:36:28.343
249, -6495.13, -6575.70, -6612.20, -6551.30, -50117.62, -89530.49, -126760.67, -116531.44, 0.000, 0.000, 0.000, 17:36:28.343
250, -6491.30, -6572.24, -6609.32, -6548.32, -50114.89, -89527.61, -126757.77, -116528.49, 0.030, 0.000, 0.974, 17:36:28.343
251, -6492.04, -6573.11, -6609.99, -6549.08, -50115.71, -89528.45, -126758.57, -116529.38, 0.000, 0.000, 0.000, 17:36:28.343
252, -6494.21, -6574.92, -6611.22, -6550.47, -50116.95, -89529.87, -126759.78, -116530.64, 0.000, 0.000, 0.000, 17:36:28.343
253, -6496.56, -6576.98, -6613.19, -6552.28, -50118.73, -89531.79, -126761.63, -116532.45, 0.000, 0.000, 0.000, 17:36:28.344
254, -6494.97, -6575.57, -6612.07, -6551.05, -50117.73, -89530.55, -126760.45, -116531.24, 0.000, 0.000, 0.000, 17:36:28.344
255, -6492.44, -6573.36, -6610.35, -6549.22, -50116.34, -89528.84, -126758.82, -116529.54, 0.000, 0.000, 0.000, 17:36:28.344
0, -6489.49, -6570.43, -6607.31, -6546.29, -50113.37, -89526.04, -126755.89, -116526.70, 0.000, 0.000, 0.000, 17:36:28.344
1, -6493.67, -6574.21, -6610.68, -6549.78, -50116.54, -89529.40, -126759.15, -116529.95, 0.000, 0.000, 0.000, 17:36:28.344
2, -6497.70, -6578.07, -6614.33, -6553.44, -50120.25, -89533.04, -126762.70, -116533.48, 0.000, 0.000, 0.000, 17:36:28.344
3, -6497.07, -6577.54, -6614.08, -6553.22, -50120.19, -89532.84, -126762.59, -116533.30, 0.000, 0.000, 0.000, 17:36:28.344
4, -6493.29, -6574.12, -6611.27, -6550.18, -50117.57, -89529.89, -126759.84, -116530.41, 0.000, 0.000, 0.000, 17:36:28.344
5, -6493.45, -6574.41, -6611.33, -6550.27, -50117.68, -89530.27, -126760.00, -116530.73, 0.024, 0.004, 0.974, 17:36:28.345
6, -6497.38, -6577.92, -6614.33, -6553.51, -50120.57, -89533.35, -126762.98, -116533.84, 0.000, 0.000, 0.000, 17:36:28.345
7, -6499.08, -6579.33, -6615.62, -6554.69, -50121.82, -89534.52, -126764.20, -116534.99, 0.000, 0.000, 0.000, 17:36:28.345
8, -6495.82, -6576.31, -6613.10, -6551.88, -50119.34, -89531.83, -126761.56, -116532.24, 0.000, 0.000, 0.000, 17:36:28.345
9, -6493.61, -6574.41, -6611.67, -6550.33, -50118.11, -89530.42, -126760.25, -116530.88, 0.000, 0.000, 0.000, 17:36:28.345
10, -6492.09, -6573.07, -6610.08, -6548.93, -50116.57, -89529.04, -126758.62, -116529.45, 0.000, 0.000, 0.000, 17:36:28.345
11, -6495.35, -6575.93, -6612.34, -6551.43, -50118.82, -89531.54, -126760.96, -116531.87, 0.000, 0.000, 0.000, 17:36:28.345
12, -6498.55, -6578.81, -6615.15, -6554.29, -50121.57, -89534.40, -126763.69, -116534.48, 0.000, 0.000, 0.000, 17:36:28.346
13, -6496.78, -6577.18, -6613.99, -6552.86, -50120.41, -89533.17, -126762.46, -116533.19, 0.000, 0.000, 0.000, 17:36:28.346
14, -6493.05, -6573.89, -6611.02, -6549.82, -50117.79, -89530.29, -126759.63, -116530.37, 0.000, 0.000, 0.000, 17:36:28.346
15, -6491.84, -6572.80, -6609.79, -6548.75, -50116.72, -89529.22, -126758.55, -116529.34, 0.022, 0.002, 0.976, 17:36:28.346
16, -6496.20, -6576.84, -6613.34, -6552.39, -50120.10, -89532.86, -126762.04, -116532.91, 0.000, 0.000, 0.000, 17:36:28.346
17, -6497.05, -6577.38, -6613.79, -6552.95, -50120.54, -89533.15, -126762.46, -116533.23, 0.000, 0.000, 0.000, 17:36:28.346
18, -6496.06, -6576.58, -6613.23, -6552.37, -50120.23, -89532.70, -126761.97, -116532.70, 0.000, 0.000, 0.000, 17:36:28.346
19, -6492.27, -6573.31, -6610.33, -6549.24, -50117.53, -89529.77, -126759.17, -116529.88, 0.000, 0.000, 0.000, 17:36:28.346
20, -6493.38, -6574.43, -6611.38, -6550.38, -50118.64, -89531.02, -126760.34, -116531.13, 0.000, 0.000, 0.000, 17:36:28.346
21, -6494.77, -6575.53, -6611.98, -6551.12, -50119.11, -89531.74, -126760.88, -116531.69, 0.000, 0.000, 0.000, 17:36:28.347
22, -6497.38, -6577.69, -6614.10, -6553.31, -50121.24, -89533.93, -126762.93, -116533.70, 0.000, 0.000, 0.000, 17:36:28.347
23, -6495.15, -6575.48, -6612.23, -6551.32, -50119.58, -89532.01, -126761.19, -116531.82, 0.000, 0.000, 0.000, 17:36:28.347
24, -6492.27, -6573.00, -6610.19, -6549.13, -50117.73, -89530.05, -126759.33, -116529.95, 0.000, 0.000, 0.000, 17:36:28.347
25, -6491.66, -6572.53, -6609.57, -6548.73, -50117.28, -89529.66, -126758.75, -116529.48, 0.026, 0.004, 0.976, 17:36:28.347
26, -6494.66, -6575.15, -6611.69, -6551.01, -50119.32, -89531.85, -126760.85, -116531.62, 0.000, 0.000, 0.000, 17:36:28.347
27, -6494.77, -6575.01, -6611.42, -6550.67, -50118.89, -89531.48, -126760.54, -116531.24, 0.000, 0.000, 0.000, 17:36:28.347
28, -6491.42, -6571.79, -6608.61, -6547.63, -50116.23, -89528.59, -126757.70, -116528.29, 0.000, 0.000, 0.000, 17:36:28.347
29, -6488.80, -6569.49, -6606.82, -6545.75, -50114.62, -89526.83, -126756.02, -116526.55, 0.000, 0.000, 0.000, 17:36:28.348
30, -6489.58, -6570.29, -6607.44, -6546.40, -50115.38, -89527.59, -126756.78, -116527.38, 0.000, 0.000, 0.000, 17:36:28.348
31, -6492.73, -6573.13, -6609.92, -6548.99, -50117.71, -89530.27, -126759.29, -116529.79, 0.000, 0.000, 0.000, 17:36:28.348
32, -6496.62, -6576.78, -6613.46, -6552.53, -50121.30, -89533.87, -126762.86, -116533.32, 0.000, 0.000, 0.000, 17:36:28.348
33, -6495.51, -6575.86, -6612.85, -6551.79, -50120.79, -89533.15, -126762.20, -116532.65, 0.000, 0.000, 0.000, 17:36:28.348
34, -6493.94, -6574.45, -6611.85, -6550.71, -50120.05, -89532.16, -126761.30, -116531.71, 0.000, 0.000, 0.000, 17:36:28.348
35, -6493.61, -6574.01, -6611.40, -6550.38, -50119.70, -89531.83, -126760.94, -116531.40, 0.024, 0.002, 0.968, 17:36:28.348
36, -6493.11, -6573.36, -6610.39, -6549.42, -50118.55, -89531.01, -126759.95, -116530.39, 0.000, 0.000, 0.000, 17:36:28.348
37, -6492.98, -6573.20, -6609.97, -6549.08, -50118.20, -89530.65, -126759.51, -116529.99, 0.000, 0.000, 0.000, 17:36:28.349
38, -6488.64, -6568.98, -6605.99, -6545.06, -50114.42, -89526.76, -126755.62, -116526.10, 0.000, 0.000, 0.000, 17:36:28.349
39, -6487.95, -6568.42, -6605.86, -6544.70, -50114.31, -89526.55, -126755.46, -116525.85, 0.000, 0.000, 0.000, 17:36:28.349
40, -6491.26, -6571.61, -6608.90, -6547.85, -50117.50, -89529.66, -126758.62, -116529.03, 0.000, 0.000, 0.000, 17:36:28.349
41, -6492.76, -6572.87, -6609.92, -6549.04, -50118.58, -89530.83, -126759.73, -116530.16, 0.000, 0.000, 0.000, 17:36:28.349
42, -6492.09, -6572.11, -6609.23, -6548.30, -50117.84, -89530.16, -126759.02, -116529.41, 0.000, 0.000, 0.000, 17:36:28.349
43, -6493.32, -6573.42, -6610.82, -6549.82, -50119.52, -89531.85, -126760.59, -116530.99, 0.000, 0.000, 0.000, 17:36:28.349
44, -6493.36, -6573.80, -6611.31, -6550.33, -50120.14, -89532.39, -126761.21, -116531.55, 0.000, 0.000, 0.000, 17:36:28.350
45, -6494.12, -6574.47, -6611.78, -6550.83, -50120.68, -89532.88, -126761.81, -116532.11, 0.026, -0.002, 0.978, 17:36:28.350
46, -6495.80, -6575.84, -6612.88, -6551.94, -50121.80, -89534.02, -126762.98, -116533.27, 0.000, 0.000, 0.000, 17:36:28.350
47, -6492.78, -6572.73, -6609.88, -6548.97, -50118.80, -89531.05, -126759.87, -116530.23, 0.000, 0.000, 0.000, 17:36:28.350
48, -6492.53, -6572.71, -6610.17, -6549.15, -50119.18, -89531.50, -126760.12, -116530.57, 0.000, 0.000, 0.000, 17:36:28.350
49, -6492.02, -6572.40, -6609.88, -6548.90, -50119.11, -89531.32, -126759.94, -116530.30, 0.000, 0.000, 0.000, 17:36:28.350
50, -6494.34, -6574.45, -6611.85, -6550.87, -50121.06, -89533.20, -126761.97, -116532.20, 0.000, 0.000, 0.000, 17:36:28.350
51, -6496.62, -6576.49, -6613.70, -6552.77, -50122.91, -89535.09, -126763.89, -116534.15, 0.000, 0.000, 0.000, 17:36:28.351
52, -6496.40, -6576.31, -6613.64, -6552.70, -50122.85, -89535.16, -126763.80, -116534.08, 0.000, 0.000, 0.000, 17:36:28.351
53, -6492.20, -6572.46, -6609.90, -6548.97, -50119.36, -89531.54, -126760.09, -116530.39, 0.000, 0.000, 0.000, 17:36:28.351
54, -6490.86, -6571.30, -6608.81, -6547.76, -50118.38, -89530.52, -126759.04, -116529.34, 0.000, 0.000, 0.000, 17:36:28.351
55, -6494.32, -6574.47, -6611.85, -6550.69, -50121.37, -89533.46, -126762.02, -116532.29, 0.034, 0.002, 0.976, 17:36:28.351
56, -6495.91, -6575.93, -6613.12, -6551.99, -50122.67, -89534.85, -126763.35, -116533.52, 0.000, 0.000, 0.000, 17:36:28.351
57, -6495.84, -6576.04, -6613.30, -6552.21, -50122.82, -89535.01, -126763.47, -116533.72, 0.000, 0.000, 0.000, 17:36:28.352
58, -6495.28, -6575.79, -6613.12, -6552.19, -50122.94, -89535.01, -126763.38, -116533.74, 0.000, 0.000, 0.000, 17:36:28.352
59, -6496.22, -6576.80, -6614.28, -6553.33, -50124.14, -89536.32, -126764.61, -116534.93, 0.000, 0.000, 0.000, 17:36:28.352
60, -6496.06, -6576.37, -6613.72, -6552.68, -50123.50, -89535.63, -126764.00, -116534.13, 0.000, 0.000, 0.000, 17:36:28.352
61, -6497.85, -6578.03, -6615.18, -6554.13, -50124.84, -89537.11, -126765.37, -116535.58, 0.000, 0.000, 0.000, 17:36:28.352
62, -6498.08, -6578.32, -6615.54, -6554.47, -50125.28, -89537.55, -126765.77, -116536.02, 0.000, 0.000, 0.000, 17:36:28.352
63, -6495.71, -6576.26, -6613.57, -6552.59, -50123.65, -89535.79, -126764.02, -116534.23, 0.000, 0.000, 0.000, 17:36:28.352
64, -6496.60, -6577.27, -6614.60, -6553.58, -50124.72, -89536.88, -126765.10, -116535.38, 0.000, 0.000, 0.000, 17:36:28.352
65, -6498.64, -6579.01, -6616.09, -6555.10, -50126.29, -89538.42, -126766.64, -116536.78, 0.030, 0.000, 0.980, 17:36:28.353
66, -6500.76, -6580.82, -6617.79, -6556.86, -50128.14, -89540.28, -126768.38, -116538.59, 0.000, 0.000, 0.000, 17:36:28.353
67, -6500.29, -6580.51, -6617.55, -6556.66, -50127.83, -89539.97, -126768.05, -116538.23, 0.000, 0.000, 0.000, 17:36:28.353
68, -6496.02, -6576.60, -6613.81, -6552.86, -50124.14, -89536.26, -126764.31, -116534.55, 0.000, 0.000, 0.000, 17:36:28.353
69, -6492.98, -6573.71, -6611.00, -6549.98, -50121.44, -89533.35, -126761.48, -116531.69, 0.000, 0.000, 0.000, 17:36:28.353
70, -6496.56, -6576.80, -6614.10, -6552.99, -50124.50, -89536.44, -126764.59, -116534.66, 0.000, 0.000, 0.000, 17:36:28.353
71, -6498.21, -6578.30, -6615.54, -6554.47, -50125.89, -89537.91, -126766.08, -116536.20, 0.000, 0.000, 0.000, 17:36:28.353
72, -6496.74, -6576.98, -6614.22, -6553.29, -50124.68, -89536.64, -126764.77, -116534.98, 0.000, 0.000, 0.000, 17:36:28.353
73, -6493.38, -6573.87, -6611.13, -6550.31, -50121.82, -89533.73, -126761.79, -116532.00, 0.000, 0.000, 0.000, 17:36:28.354
74, -6491.77, -6572.31, -6609.68, -6548.75, -50120.43, -89532.28, -126760.34, -116530.46, 0.000, 0.000, 0.000, 17:36:28.354
75, -6494.01, -6574.25, -6611.56, -6550.58, -50122.29, -89534.13, -126762.30, -116532.24, 0.028, -0.002, 0.978, 17:36:28.354
76, -6496.65, -6576.75, -6613.99, -6553.11, -50124.81, -89536.64, -126764.74, -116534.70, 0.000, 0.000, 0.000, 17:36:28.354
77, -6496.00, -6576.26, -6613.57, -6552.73, -50124.37, -89536.26, -126764.25, -116534.26, 0.000, 0.000, 0.000, 17:36:28.354
78, -6493.34, -6573.94, -6611.24, -6550.45, -50122.22, -89534.05, -126761.99, -116532.11, 0.000, 0.000, 0.000, 17:36:28.354
79, -6491.48, -6572.02, -6609.34, -6548.44, -50120.39, -89532.26, -126760.18, -116530.19, 0.000, 0.000, 0.000, 17:36:28.354
80, -6493.00, -6573.20, -6610.37, -6549.33, -50121.37, -89533.17, -126761.19, -116531.09, 0.000, 0.000, 0.000, 17:36:28.354
81, -6495.39, -6575.61, -6612.79, -6551.74, -50123.81, -89535.61, -126763.63, -116533.45, 0.000, 0.000, 0.000, 17:36:28.355
82, -6493.11, -6573.56, -6610.62, -6549.71, -50121.84, -89533.64, -126761.52, -116531.55, 0.000, 0.000, 0.000, 17:36:28.355
83, -6490.41, -6571.08, -6608.18, -6547.41, -50119.56, -89531.25, -126758.99, -116529.20, 0.000, 0.000, 0.000, 17:36:28.355
84, -6487.95, -6568.55, -6605.75, -6544.90, -50117.10, -89528.79, -126756.58, -116526.66, 0.000, 0.000, 0.000, 17:36:28.355
85, -6490.07, -6570.23, -6607.44, -6546.45, -50118.73, -89530.47, -126758.33, -116528.24, 0.024, 0.002, 0.982, 17:36:28.355
86, -6493.34, -6573.51, -6610.57, -6549.60, -50121.98, -89533.75, -126761.63, -116531.51, 0.000, 0.000, 0.000, 17:36:28.355
87, -6492.65, -6573.07, -6610.10, -6549.22, -50121.57, -89533.42, -126761.16, -116531.17, 0.000, 0.000, 0.000, 17:36:28.355
88, -6489.96, -6570.67, -6607.76, -6546.92, -50119.34, -89531.12, -126758.77, -116528.83, 0.000, 0.000, 0.000, 17:36:28.356
89, -6490.75, -6571.32, -6608.38, -6547.45, -50119.98, -89531.83, -126759.33, -116529.43, 0.000, 0.000, 0.000, 17:36:28.356
90, -6492.49, -6572.73, -6609.79, -6548.73, -50121.39, -89533.06, -126760.74, -116530.73, 0.000, 0.000, 0.000, 17:36:28.356
91, -6495.73, -6575.91, -6613.08, -6551.94, -50124.68, -89536.44, -126764.07, -116534.05, 0.000, 0.000, 0.000, 17:36:28.356
92, -6494.43, -6574.79, -6612.03, -6550.96, -50123.81, -89535.54, -126763.04, -116533.01, 0.000, 0.000, 0.000, 17:36:28.356
93, -6495.71, -6576.15, -6613.39, -6552.46, -50125.35, -89537.04, -126764.47, -116534.46, 0.000, 0.000, 0.000, 17:36:28.356
94, -6495.51, -6575.93, -6612.90, -6552.01, -50124.93, -89536.57, -126764.05, -116533.97, 0.000, 0.000, 0.000, 17:36:28.357
95, -6495.98, -6576.08, -6612.99, -6552.06, -50125.13, -89536.62, -126764.20, -116533.99, 0.000, 0.000, 0.000, 17:36:28.357
96, -6497.05, -6577.34, -6614.26, -6553.35, -50126.40, -89537.98, -126765.50, -116535.30, 0.026, -0.002, 0.976, 17:36:28.357
97, -6493.83, -6574.39, -6611.47, -6550.54, -50123.74, -89535.23, -126762.75, -116532.63, 0.000, 0.000, 0.000, 17:36:28.357
98, -6491.64, -6572.35, -6609.43, -6548.64, -50121.68, -89533.28, -126760.70, -116530.57, 0.000, 0.000, 0.000, 17:36:28.357
99, -6495.13, -6575.59, -6612.63, -6551.68, -50124.72, -89536.37, -126763.73, -116533.61, 0.000, 0.000, 0.000, 17:36:28.357
100, -6497.96, -6578.14, -6615.20, -6554.13, -50127.34, -89538.78, -126766.33, -116536.05, 0.000, 0.000, 0.000, 17:36:28.358
101, -6496.09, -6576.24, -6613.46, -6552.39, -50125.73, -89537.15, -126764.61, -116534.39, 0.000, 0.000, 0.000, 17:36:28.358
102, -6492.89, -6573.33, -6610.62, -6549.51, -50122.87, -89534.36, -126761.70, -116531.58, 0.000, 0.000, 0.000, 17:36:28.358
103, -6490.52, -6571.03, -6608.27, -6547.36, -50120.59, -89532.13, -126759.40, -116529.27, 0.000, 0.000, 0.000, 17:36:28.358
104, -6492.67, -6572.98, -6609.92, -6548.99, -50122.31, -89533.84, -126761.08, -116530.88, 0.000, 0.000, 0.000, 17:36:28.358
105, -6495.73, -6575.93, -6612.74, -6551.74, -50125.21, -89536.70, -126763.96, -116533.72, 0.000, 0.000, 0.000, 17:36:28.823
106, -6496.33, -6576.78, -6613.79, -6552.68, -50126.40, -89537.77, -126765.10, -116534.86, 0.024, 0.000, 0.982, 17:36:28.823
107, -6492.98, -6573.85, -6611.06, -6549.93, -50123.72, -89535.03, -126762.37, -116532.18, 0.000, 0.000, 0.000, 17:36:28.823
108, -6493.07, -6573.85, -6610.89, -6550.00, -50123.61, -89535.09, -126762.33, -116532.16, 0.000, 0.000, 0.000, 17:36:28.824
109, -6493.70, -6574.07, -6610.77, -6549.93, -50123.52, -89535.09, -126762.20, -116531.98, 0.000, 0.000, 0.000, 17:36:28.824
110, -6492.76, -6572.91, -6609.68, -6548.81, -50122.58, -89533.91, -126761.19, -116530.75, 0.000, 0.000, 0.000, 17:36:28.824
111, -6491.71, -6572.13, -6609.21, -6548.21, -50122.24, -89533.44, -126760.65, -116530.34, 0.000, 0.000, 0.000, 17:36:28.824
112, -6492.49, -6573.31, -6610.35, -6549.44, -50123.50, -89534.73, -126761.90, -116531.69, 0.000, 0.000, 0.000, 17:36:28.824
113, -6492.42, -6573.36, -6610.24, -6549.37, -50123.36, -89534.73, -126761.70, -116531.60, 0.000, 0.000, 0.000, 17:36:28.825
114, -6496.00, -6576.37, -6612.90, -6551.99, -50126.04, -89537.35, -126764.36, -116534.15, 0.000, 0.000, 0.000, 17:36:28.825
115, -6497.56, -6577.76, -6614.35, -6553.42, -50127.61, -89538.88, -126765.91, -116535.60, 0.000, 0.000, 0.000, 17:36:28.825
116, -6495.46, -6576.04, -6613.03, -6552.12, -50126.36, -89537.51, -126764.54, -116534.30, 0.024, -0.004, 0.980, 17:36:28.825
117, -6494.17, -6574.90, -6612.07, -6551.23, -50125.59, -89536.73, -126763.69, -116533.54, 0.000, 0.000, 0.000, 17:36:28.825
118, -6494.75, -6575.44, -6612.41, -6551.54, -50125.93, -89537.22, -126764.13, -116533.97, 0.000, 0.000, 0.000, 17:36:28.825
119, -6496.91, -6577.36, -6613.86, -6552.91, -50127.29, -89538.54, -126765.41, -116535.17, 0.000, 0.000, 0.000, 17:36:28.826
120, -6498.93, -6579.15, -6615.80, -6554.78, -50129.26, -89540.46, -126767.34, -116536.90, 0.000, 0.000, 0.000, 17:36:28.826
121, -6496.04, -6576.75, -6613.86, -6552.84, -50127.54, -89538.49, -126765.32, -116534.98, 0.000, 0.000, 0.000, 17:36:28.826
122, -6491.93, -6573.02, -6610.26, -6549.22, -50123.94, -89534.96, -126761.63, -116531.40, 0.000, 0.000, 0.000, 17:36:28.826
123, -6494.88, -6575.86, -6612.65, -6551.77, -50126.49, -89537.60, -126764.36, -116534.05, 0.000, 0.000, 0.000, 17:36:28.826
124, -6497.09, -6577.45, -6613.70, -6552.88, -50127.50, -89538.76, -126765.55, -116535.17, 0.000, 0.000, 0.000, 17:36:28.826
125, -6498.93, -6579.06, -6615.58, -6554.58, -50129.35, -89540.46, -126767.34, -116536.72, 0.000, 0.000, 0.000, 17:36:28.826
126, -6494.08, -6574.72, -6611.78, -6550.76, -50125.77, -89536.66, -126763.42, -116532.96, 0.024, 0.002, 0.974, 17:36:28.826
127, -6492.33, -6573.36, -6610.55, -6549.64, -50124.70, -89535.61, -126762.17, -116531.89, 0.000, 0.000, 0.000, 17:36:28.826
128, -6492.78, -6573.58, -6610.51, -6549.66, -50124.66, -89535.79, -126762.33, -116532.02, 0.000, 0.000, 0.000, 17:36:28.827
129, -6496.47, -6576.60, -6613.03, -6552.21, -50127.14, -89538.42, -126764.94, -116534.64, 0.000, 0.000, 0.000, 17:36:28.827
130, -6495.64, -6575.84, -6612.36, -6551.45, -50126.51, -89537.55, -126764.25, -116533.72, 0.000, 0.000, 0.000, 17:36:28.827
131, -6491.33, -6572.02, -6609.21, -6548.14, -50123.34, -89534.23, -126760.70, -116530.16, 0.000, 0.000, 0.000, 17:36:28.827
132, -6490.25, -6571.32, -6608.63, -6547.56, -50123.02, -89533.75, -126760.05, -116529.61, 0.000, 0.000, 0.000, 17:36:28.827
133, -6493.45, -6574.25, -6611.06, -6550.04, -50125.59, -89536.48, -126762.88, -116532.54, 0.000, 0.000, 0.000, 17:36:28.827
134, -6496.78, -6576.91, -6613.23, -6552.21, -50127.70, -89538.78, -126765.27, -116534.95, 0.000, 0.000, 0.000, 17:36:28.827
135, -6496.56, -6576.80, -6613.32, -6552.21, -50127.79, -89538.58, -126765.16, -116534.75, 0.000, 0.000, 0.000, 17:36:28.828
136, -6493.32, -6574.21, -6611.22, -6550.04, -50125.80, -89536.32, -126762.80, -116532.27, 0.028, 0.002, 0.982, 17:36:28.828
137, -6492.69, -6573.80, -6611.02, -6549.93, -50125.66, -89536.21, -126762.66, -116532.16, 0.000, 0.000, 0.000, 17:36:28.828
138, -6493.05, -6573.96, -6610.73, -6549.73, -50125.42, -89536.16, -126762.64, -116532.13, 0.000, 0.000, 0.000, 17:36:28.828
139, -6497.92, -6578.27, -6614.33, -6553.51, -50129.17, -89540.13, -126766.57, -116536.07, 0.000, 0.000, 0.000, 17:36:28.828
140, -6498.90, -6579.21, -6615.49, -6554.63, -50130.40, -89541.22, -126767.63, -116537.09, 0.000, 0.000, 0.000, 17:36:28.828
141, -6493.16, -6574.12, -6610.91, -6549.89, -50125.95, -89536.48, -126762.77, -116532.20, 0.000, 0.000, 0.000, 17:36:28.828
142, -6489.14, -6570.34, -6607.33, -6546.29, -50122.42, -89532.97, -126759.13, -116528.63, 0.000, 0.000, 0.000, 17:36:28.829
143, -6491.04, -6571.90, -6608.45, -6547.54, -50123.70, -89534.40, -126760.59, -116530.15, 0.000, 0.000, 0.000, 17:36:28.829
144, -6496.51, -6576.64, -6612.74, -6551.88, -50127.90, -89538.72, -126765.08, -116534.62, 0.000, 0.000, 0.000, 17:36:28.829
145, -6495.98, -6576.24, -6612.72, -6551.72, -50127.85, -89538.45, -126764.80, -116534.21, 0.000, 0.000, 0.000, 17:36:28.829
146, -6492.67, -6573.74, -6610.77, -6549.71, -50125.93, -89536.37, -126762.46, -116532.02, 0.026, 0.004, 0.982, 17:36:28.829
147, -6489.11, -6570.43, -6607.49, -6546.42, -50122.71, -89533.33, -126759.24, -116528.83, 0.000, 0.000, 0.000, 17:36:28.829
148, -6491.97, -6572.82, -6609.46, -6548.55, -50124.81, -89535.59, -126761.59, -116531.15, 0.000, 0.000, 0.000, 17:36:28.829
149, -6496.96, -6577.09, -6613.28, -6552.28, -50128.64, -89539.48, -126765.70, -116535.20, 0.000, 0.000, 0.000, 17:36:28.829
150, -6494.70, -6575.12, -6611.58, -6550.54, -50127.16, -89537.66, -126763.91, -116533.21, 0.000, 0.000, 0.000, 17:36:28.829
151, -6492.78, -6573.80, -6610.84, -6549.82, -50126.49, -89536.91, -126762.95, -116532.24, 0.000, 0.000, 0.000, 17:36:28.830
152, -6492.27, -6573.49, -6610.55, -6549.44, -50126.18, -89536.70, -126762.66, -116532.07, 0.000, 0.000, 0.000, 17:36:28.830
153, -6496.44, -6577.22, -6613.77, -6552.70, -50129.48, -89540.10, -126766.02, -116535.53, 0.000, 0.000, 0.000, 17:36:28.830
154, -6501.47, -6581.58, -6617.66, -6556.57, -50133.33, -89544.04, -126770.20, -116539.55, 0.000, 0.000, 0.000, 17:36:28.830
155, -6496.47, -6576.82, -6613.41, -6552.35, -50129.20, -89539.70, -126765.84, -116535.15, 0.000, 0.000, 0.000, 17:36:28.830
156, -6489.69, -6570.76, -6607.87, -6546.87, -50123.81, -89534.16, -126760.07, -116529.52, 0.030, 0.004, 0.980, 17:36:28.830
157, -6489.18, -6570.43, -6607.49, -6546.45, -50123.56, -89533.89, -126759.80, -116529.23, 0.000, 0.000, 0.000, 17:36:28.830
158, -6490.61, -6571.28, -6607.89, -6546.89, -50123.79, -89534.40, -126760.38, -116529.72, 0.000, 0.000, 0.000, 17:36:28.830
159, -6493.14, -6573.11, -6609.34, -6548.28, -50125.21, -89535.81, -126761.88, -116531.11, 0.000, 0.000, 0.000, 17:36:28.831
160, -6490.70, -6571.10, -6607.78, -6546.71, -50123.94, -89534.27, -126760.29, -116529.56, 0.000, 0.000, 0.000, 17:36:28.831
161, -6489.14, -6570.32, -6607.38, -6546.31, -50123.70, -89533.95, -126759.80, -116529.27, 0.000, 0.000, 0.000, 17:36:28.831
162, -6490.97, -6572.17, -6609.19, -6548.08, -50125.57, -89535.77, -126761.66, -116531.06, 0.000, 0.000, 0.000, 17:36:28.831
163, -6495.44, -6576.06, -6612.45, -6551.43, -50128.81, -89539.30, -126765.14, -116534.52, 0.000, 0.000, 0.000, 17:36:28.831
164, -6498.12, -6578.10, -6614.13, -6553.11, -50130.36, -89540.88, -126766.95, -116536.13, 0.000, 0.000, 0.000, 17:36:28.831
165, -6493.47, -6574.01, -6610.62, -6549.62, -50127.00, -89537.35, -126763.31, -116532.54, 0.000, 0.000, 0.000, 17:36:28.831
166, -6487.57, -6568.82, -6605.97, -6544.90, -50122.60, -89532.84, -126758.64, -116528.00, 0.030, 0.004, 0.978, 17:36:28.831
167, -6488.11, -6569.29, -6606.30, -6545.28, -50123.05, -89533.40, -126759.13, -116528.36, 0.000, 0.000, 0.000, 17:36:28.831
168, -6493.72, -6574.01, -6610.57, -6549.49, -50127.27, -89537.69, -126763.47, -116532.60, 0.000, 0.000, 0.000, 17:36:28.832
169, -6496.62, -6576.29, -6612.47, -6551.30, -50129.20, -89539.54, -126765.39, -116534.37, 0.000, 0.000, 0.000, 17:36:28.832
170, -6493.61, -6574.03, -6610.62, -6549.55, -50127.59, -89537.89, -126763.69, -116532.70, 0.000, 0.000, 0.000, 17:36:28.832
171, -6490.28, -6571.46, -6608.61, -6547.59, -50125.89, -89536.01, -126761.81, -116530.84, 0.000, 0.000, 0.000, 17:36:28.832
172, -6491.33, -6572.51, -6609.57, -6548.57, -50126.78, -89536.99, -126762.59, -116531.73, 0.000, 0.000, 0.000, 17:36:28.832
173, -6496.29, -6576.60, -6613.21, -6552.06, -50130.20, -89540.55, -126766.20, -116535.27, 0.000, 0.000, 0.000, 17:36:28.832
174, -6497.94, -6577.54, -6613.81, -6552.55, -50130.67, -89540.95, -126766.88, -116535.64, 0.000, 0.000, 0.000, 17:36:28.832
175, -6495.69, -6576.11, -6612.74, -6551.54, -50129.95, -89540.13, -126765.95, -116534.82, 0.000, 0.000, 0.000, 17:36:28.832
176, -6490.72, -6571.93, -6609.01, -6547.99, -50126.64, -89536.81, -126762.35, -116531.53, 0.030, 0.000, 0.968, 17:36:28.833
177, -6490.07, -6571.32, -6608.34, -6547.36, -50126.00, -89536.23, -126761.73, -116530.93, 0.000, 0.000, 0.000, 17:36:28.833
178, -6493.61, -6573.87, -6610.35, -6549.35, -50127.79, -89538.18, -126763.69, -116532.67, 0.000, 0.000, 0.000, 17:36:28.833
179, -6497.47, -6576.91, -6612.90, -6551.85, -50130.25, -89540.57, -126766.17, -116535.11, 0.000, 0.000, 0.000, 17:36:28.833
180, -6492.62, -6572.89, -6609.43, -6548.41, -50127.09, -89537.30, -126762.91, -116531.93, 0.000, 0.000, 0.000, 17:36:28.833
181, -6487.53, -6568.75, -6605.97, -6545.06, -50123.94, -89534.07, -126759.55, -116528.78, 0.000, 0.000, 0.000, 17:36:28.833
182, -6488.93, -6570.09, -6607.24, -6546.40, -50125.33, -89535.48, -126760.83, -116530.15, 0.000, 0.000, 0.000, 17:36:28.833
183, -6494.32, -6574.59, -6611.04, -6550.09, -50128.79, -89538.98, -126764.38, -116533.45, 0.000, 0.000, 0.000, 17:36:28.834
184, -6496.06, -6575.41, -6611.27, -6550.22, -50128.95, -89539.07, -126764.52, -116533.32, 0.000, 0.000, 0.000, 17:36:28.834
185, -6491.77, -6571.84, -6608.45, -6547.54, -50126.51, -89536.59, -126762.05, -116531.02, 0.000, 0.000, 0.000, 17:36:28.834
186, -6486.95, -6568.06, -6605.36, -6544.61, -50123.88, -89533.95, -126759.35, -116528.63, 0.000, 0.000, 0.000, 17:36:28.834
187, -6489.16, -6570.32, -6607.44, -6546.76, -50126.07, -89536.21, -126761.61, -116530.84, 0.038, 0.004, 0.960, 17:36:28.834
188, -6496.11, -6576.20, -6612.52, -6551.65, -50130.82, -89541.06, -126766.30, -116535.30, 0.000, 0.000, 0.000, 17:36:28.834
189, -6499.60, -6578.70, -6614.57, -6553.55, -50132.59, -89542.80, -126767.94, -116536.74, 0.000, 0.000, 0.000, 17:36:28.834
190, -6493.92, -6573.94, -6610.55, -6549.64, -50128.97, -89539.03, -126764.36, -116533.25, 0.000, 0.000, 0.000, 17:36:28.834
191, -6488.09, -6569.49, -6606.71, -6546.07, -50125.71, -89535.66, -126761.08, -116530.21, 0.000, 0.000, 0.000, 17:36:28.835
192, -6488.24, -6569.45, -6606.55, -6545.86, -50125.64, -89535.70, -126761.09, -116530.13, 0.000, 0.000, 0.000, 17:36:28.835
193, -6494.75, -6574.81, -6611.13, -6550.25, -50129.75, -89539.84, -126765.14, -116533.88, 0.000, 0.000, 0.000, 17:36:28.835
194, -6501.72, -6580.82, -6616.59, -6555.52, -50134.78, -89544.86, -126770.13, -116538.66, 0.000, 0.000, 0.000, 17:36:28.835
195, -6496.11, -6576.20, -6612.74, -6551.83, -50131.36, -89541.38, -126766.71, -116535.55, 0.000, 0.000, 0.000, 17:36:28.835
196, -6486.72, -6568.15, -6605.54, -6544.86, -50124.81, -89534.91, -126760.07, -116529.30, 0.000, 0.000, 0.000, 17:36:28.835
197, -6488.24, -6569.56, -6606.75, -6546.04, -50126.11, -89536.26, -126761.41, -116530.64, 0.034, 0.006, 0.964, 17:36:28.835
198, -6497.56, -6577.49, -6613.68, -6552.88, -50132.59, -89542.80, -126767.87, -116536.72, 0.000, 0.000, 0.000, 17:36:28.835
199, -6501.92, -6580.71, -6616.27, -6555.27, -50134.76, -89545.00, -126769.95, -116538.37, 0.000, 0.000, 0.000, 17:36:28.836
200, -6493.94, -6573.92, -6610.39, -6549.58, -50129.44, -89539.48, -126764.52, -116533.25, 0.000, 0.000, 0.000, 17:36:28.836
201, -6485.67, -6567.03, -6604.47, -6543.94, -50124.32, -89534.16, -126759.33, -116528.65, 0.000, 0.000, 0.000, 17:36:28.836
202, -6484.98, -6566.25, -6603.73, -6543.14, -50123.61, -89533.51, -126758.57, -116527.93, 0.000, 0.000, 0.000, 17:36:28.836
203, -6493.09, -6572.93, -6609.37, -6548.52, -50128.66, -89538.67, -126763.66, -116532.47, 0.000, 0.000, 0.000, 17:36:28.836
204, -6500.51, -6579.10, -6614.95, -6553.87, -50133.78, -89543.79, -126768.65, -116537.01, 0.000, 0.000, 0.000, 17:36:28.836
205, -6493.07, -6572.84, -6609.66, -6548.64, -50129.02, -89538.90, -126763.84, -116532.54, 0.000, 0.000, 0.000, 17:36:28.836
206, -6483.97, -6565.31, -6603.00, -6542.24, -50123.11, -89533.06, -126757.99, -116527.15, 0.000, 0.000, 0.000, 17:36:28.837
207, -6484.96, -6566.18, -6603.73, -6543.00, -50123.90, -89533.93, -126758.75, -116527.98, 0.030, 0.002, 0.970, 17:36:28.837
208, -6495.13, -6574.90, -6611.29, -6550.47, -50130.98, -89540.95, -126765.73, -116534.41, 0.000, 0.000, 0.000, 17:36:28.837
209, -6501.50, -6579.91, -6615.69, -6554.67, -50134.89, -89544.75, -126769.48, -116537.79, 0.000, 0.000, 0.000, 17:36:28.837
210, -6494.54, -6574.30, -6611.04, -6550.22, -50130.80, -89540.68, -126765.55, -116534.26, 0.000, 0.000, 0.000, 17:36:28.837
211, -6485.56, -6566.88, -6604.76, -6544.03, -50125.15, -89535.09, -126760.00, -116529.12, 0.000, 0.000, 0.000, 17:36:28.837
212, -6487.26, -6568.51, -6606.17, -6545.48, -50126.67, -89536.59, -126761.50, -116530.57, 0.000, 0.000, 0.000, 17:36:28.837
213, -6495.53, -6575.19, -6611.58, -6550.76, -50131.52, -89541.51, -126766.17, -116534.80, 0.000, 0.000, 0.000, 17:36:28.837
214, -6502.84, -6581.23, -6616.97, -6555.88, -50136.30, -89546.16, -126770.87, -116539.09, 0.000, 0.000, 0.000, 17:36:28.838
215, -6494.25, -6574.07, -6610.89, -6549.93, -50130.80, -89540.62, -126765.34, -116534.03, 0.000, 0.000, 0.000, 17:36:28.838
216, -6484.53, -6566.00, -6603.85, -6543.12, -50124.66, -89534.40, -126759.11, -116528.40, 0.000, 0.000, 0.000, 17:36:28.838
217, -6485.34, -6566.79, -6604.43, -6543.67, -50125.39, -89535.14, -126759.89, -116529.03, 0.022, 0.000, 0.970, 17:36:28.838
218, -6493.38, -6573.18, -6609.54, -6548.59, -50129.80, -89539.66, -126764.23, -116532.73, 0.000, 0.000, 0.000, 17:36:28.838
219, -6500.78, -6579.08, -6614.71, -6553.58, -50134.45, -89544.20, -126768.63, -116536.88, 0.000, 0.000, 0.000, 17:36:28.838
220, -6491.37, -6571.26, -6607.80, -6546.94, -50128.34, -89538.00, -126762.64, -116531.24, 0.000, 0.000, 0.000, 17:36:28.838
221, -6481.96, -6563.63, -6601.25, -6540.66, -50122.62, -89532.34, -126757.05, -116526.26, 0.000, 0.000, 0.000, 17:36:28.838
222, -6484.62, -6566.12, -6603.62, -6543.05, -50125.06, -89534.76, -126759.51, -116528.60, 0.000, 0.000, 0.000, 17:36:28.839
223, -6494.70, -6574.43, -6610.60, -6549.78, -50131.27, -89541.06, -126765.50, -116534.13, 0.000, 0.000, 0.000, 17:36:28.839
224, -6503.66, -6582.05, -6617.48, -6556.44, -50137.55, -89547.23, -126771.58, -116539.80, 0.000, 0.000, 0.000, 17:36:28.839
225, -6494.10, -6574.18, -6610.62, -6549.89, -50131.50, -89541.17, -126765.77, -116534.26, 0.000, 0.000, 0.000, 17:36:29.306
226, -6481.65, -6563.48, -6601.05, -6540.59, -50122.82, -89532.50, -126757.23, -116526.26, 0.000, 0.000, 0.000, 17:36:29.306
227, -6482.61, -6564.26, -6601.74, -6541.26, -50123.50, -89533.22, -126757.81, -116526.77, 0.024, 0.006, 0.972, 17:36:29.306
228, -6495.04, -6574.85, -6611.06, -6550.22, -50132.08, -89541.73, -126766.04, -116534.66, 0.000, 0.000, 0.000, 17:36:29.306
229, -6499.24, -6577.65, -6613.03, -6551.88, -50133.44, -89543.12, -126767.29, -116535.53, 0.000, 0.000, 0.000, 17:36:29.306
230, -6489.29, -6569.29, -6605.72, -6544.81, -50127.05, -89536.55, -126760.96, -116529.50, 0.000, 0.000, 0.000, 17:36:29.307
231, -6480.53, -6562.29, -6599.84, -6539.16, -50122.02, -89531.59, -126756.13, -116525.16, 0.000, 0.000, 0.000, 17:36:29.307
232, -6482.05, -6563.77, -6601.05, -6540.48, -50123.32, -89532.95, -126757.37, -116526.34, 0.000, 0.000, 0.000, 17:36:29.307
233, -6493.25, -6573.20, -6609.28, -6548.50, -50130.80, -89540.48, -126764.65, -116533.19, 0.000, 0.000, 0.000, 17:36:29.307
234, -6501.43, -6579.93, -6615.20, -6554.25, -50136.17, -89545.80, -126769.86, -116538.05, 0.000, 0.000, 0.000, 17:36:29.307
235, -6489.65, -6569.71, -6605.99, -6545.19, -50127.74, -89537.27, -126761.43, -116530.05, 0.000, 0.000, 0.000, 17:36:29.307
236, -6479.52, -6561.35, -6598.73, -6538.09, -50121.35, -89530.83, -126755.04, -116524.20, 0.000, 0.000, 0.000, 17:36:29.307
237, -6481.76, -6563.34, -6600.63, -6539.94, -50123.25, -89532.73, -126756.96, -116525.98, 0.020, 0.006, 0.974, 17:36:29.308
238, -6492.27, -6572.04, -6608.20, -6547.21, -50129.98, -89539.61, -126763.65, -116532.16, 0.000, 0.000, 0.000, 17:36:29.308
239, -6500.98, -6579.41, -6614.84, -6553.69, -50136.10, -89545.71, -126769.73, -116537.79, 0.000, 0.000, 0.000, 17:36:29.308
240, -6493.11, -6573.09, -6609.52, -6548.66, -50131.59, -89541.11, -126765.27, -116533.70, 0.000, 0.000, 0.000, 17:36:29.308
241, -6481.47, -6563.25, -6600.72, -6540.17, -50123.61, -89533.13, -126757.37, -116526.32, 0.000, 0.000, 0.000, 17:36:29.308
242, -6479.95, -6561.62, -6598.91, -6538.38, -50121.84, -89531.36, -126755.58, -116524.47, 0.000, 0.000, 0.000, 17:36:29.308
243, -6490.99, -6570.99, -6607.02, -6546.24, -50129.33, -89538.83, -126762.88, -116531.28, 0.000, 0.000, 0.000, 17:36:29.308
244, -6501.92, -6580.55, -6615.89, -6554.81, -50137.64, -89547.05, -126771.09, -116539.13, 0.000, 0.000, 0.000, 17:36:29.309
245, -6490.07, -6570.16, -6606.62, -6545.73, -50129.08, -89538.52, -126762.48, -116530.97, 0.000, 0.000, 0.000, 17:36:29.309
246, -6478.79, -6560.46, -6597.85, -6537.26, -50121.13, -89530.60, -126754.64, -116523.62, 0.000, 0.000, 0.000, 17:36:29.309
247, -6482.70, -6564.24, -6601.45, -6540.81, -50124.81, -89534.29, -126758.26, -116527.28, 0.024, 0.004, 0.976, 17:36:29.309
248, -6495.80, -6575.64, -6611.78, -6550.78, -50134.34, -89543.92, -126767.78, -116536.23, 0.000, 0.000, 0.000, 17:36:29.309
249, -6502.84, -6581.40, -6616.83, -6555.74, -50138.87, -89548.38, -126772.18, -116540.20, 0.000, 0.000, 0.000, 17:36:29.309
250, -6492.22, -6572.33, -6608.78, -6547.85, -50131.45, -89540.88, -126764.77, -116533.19, 0.000, 0.000, 0.000, 17:36:29.309
251, -6482.21, -6564.08, -6601.45, -6540.77, -50124.93, -89534.40, -126758.28, -116527.17, 0.000, 0.000, 0.000, 17:36:29.309
252, -6483.01, -6564.66, -6601.83, -6541.06, -50125.26, -89534.63, -126758.57, -116527.38, 0.000, 0.000, 0.000, 17:36:29.309
253, -6493.58, -6573.47, -6609.59, -6548.66, -50132.26, -89541.78, -126765.55, -116533.88, 0.000, 0.000, 0.000, 17:36:29.310
254, -6498.66, -6577.40, -6612.76, -6551.61, -50134.92, -89544.52, -126768.16, -116536.09, 0.000, 0.000, 0.000, 17:36:29.310
255, -6490.07, -6570.25, -6606.64, -6545.71, -50129.51, -89538.96, -126762.70, -116531.02, 0.000, 0.000, 0.000, 17:36:29.310
0, -6482.72, -6564.55, -6601.83, -6541.26, -50125.55, -89534.94, -126758.66, -116527.55, 0.000, 0.000, 0.000, 17:36:29.310
1, -6483.35, -6565.02, -6602.10, -6541.51, -50125.86, -89535.27, -126758.88, -116527.82, 0.024, 0.002, 0.980, 17:36:29.310
2, -6492.82, -6572.87, -6608.92, -6548.12, -50132.01, -89541.48, -126764.94, -116533.37, 0.000, 0.000, 0.000, 17:36:29.310
3, -6500.38, -6579.17, -6614.53, -6553.46, -50137.18, -89546.54, -126770.06, -116537.99, 0.000, 0.000, 0.000, 17:36:29.311
4, -6489.31, -6569.65, -6605.90, -6545.08, -50129.20, -89538.47, -126762.08, -116530.48, 0.000, 0.000, 0.000, 17:36:29.311
5, -6478.90, -6560.84, -6598.01, -6537.50, -50122.09, -89531.43, -126754.88, -116523.80, 0.000, 0.000, 0.000, 17:36:29.311
6, -6481.83, -6563.66, -6600.65, -6540.03, -50124.75, -89534.11, -126757.54, -116526.37, 0.000, 0.000, 0.000, 17:36:29.311
7, -6493.07, -6573.25, -6609.14, -6548.26, -50132.50, -89541.91, -126765.32, -116533.66, 0.000, 0.000, 0.000, 17:36:29.311
8, -6499.71, -6578.68, -6613.86, -6552.84, -50136.70, -89546.07, -126769.39, -116537.39, 0.000, 0.000, 0.000, 17:36:29.311
9, -6489.74, -6570.12, -6606.44, -6545.62, -50129.95, -89539.16, -126762.64, -116530.97, 0.000, 0.000, 0.000, 17:36:29.311
10, -6479.12, -6561.22, -6598.44, -6537.82, -50122.80, -89532.05, -126755.48, -116524.31, 0.000, 0.000, 0.000, 17:36:29.311
11, -6481.42, -6563.34, -6600.40, -6539.72, -50124.77, -89534.09, -126757.52, -116526.21, 0.024, 0.002, 0.982, 17:36:29.311
12, -6491.04, -6571.17, -6607.15, -6546.24, -50130.87, -89540.21, -126763.47, -116531.58, 0.000, 0.000, 0.000, 17:36:29.312
13, -6497.70, -6576.49, -6611.71, -6550.65, -50134.89, -89544.20, -126767.40, -116535.27, 0.000, 0.000, 0.000, 17:36:29.312
14, -6488.22, -6568.53, -6604.85, -6543.85, -50128.66, -89537.71, -126761.14, -116529.43, 0.000, 0.000, 0.000, 17:36:29.312
15, -6477.20, -6559.28, -6596.58, -6535.81, -50121.06, -89530.18, -126753.66, -116522.39, 0.000, 0.000, 0.000, 17:36:29.312
16, -6476.91, -6558.83, -6595.98, -6535.18, -50120.52, -89529.71, -126753.07, -116521.72, 0.000, 0.000, 0.000, 17:36:29.312
17, -6489.52, -6569.71, -6605.66, -6544.64, -50129.62, -89538.83, -126761.97, -116530.16, 0.000, 0.000, 0.000, 17:36:29.312
18, -6498.23, -6576.96, -6612.20, -6551.05, -50135.77, -89544.86, -126768.00, -116535.71, 0.000, 0.000, 0.000, 17:36:29.312
19, -6487.35, -6567.64, -6603.93, -6543.03, -50128.19, -89537.22, -126760.41, -116528.58, 0.000, 0.000, 0.000, 17:36:29.312
20, -6477.24, -6559.39, -6596.65, -6536.05, -50121.68, -89530.65, -126753.92, -116522.59, 0.000, 0.000, 0.000, 17:36:29.313
21, -6478.41, -6560.35, -6597.41, -6536.66, -50122.36, -89531.45, -126754.50, -116523.20, 0.000, 0.000, 0.000, 17:36:29.313
22, -6489.40, -6569.56, -6605.28, -6544.41, -50129.69, -89538.83, -126761.70, -116529.81, 0.024, 0.004, 0.990, 17:36:29.313
23, -6497.88, -6576.60, -6611.60, -6550.60, -50135.52, -89544.57, -126767.34, -116535.09, 0.000, 0.000, 0.000, 17:36:29.313
24, -6489.11, -6569.40, -6605.63, -6544.66, -50130.20, -89539.07, -126761.97, -116530.23, 0.000, 0.000, 0.000, 17:36:29.313
25, -6477.04, -6559.21, -6596.36, -6535.58, -50121.80, -89530.67, -126753.43, -116522.23, 0.000, 0.000, 0.000, 17:36:29.313
26, -6476.78, -6558.83, -6595.75, -6534.98, -50121.19, -89530.11, -126752.89, -116521.54, 0.000, 0.000, 0.000, 17:36:29.313
27, -6489.31, -6569.56, -6605.19, -6544.28, -50129.98, -89538.90, -126761.74, -116529.79, 0.000, 0.000, 0.000, 17:36:29.313
28, -6498.70, -6577.69, -6612.58, -6551.50, -50136.91, -89545.87, -126768.56, -116536.27, 0.000, 0.000, 0.000, 17:36:29.313
29, -6487.30, -6567.79, -6603.78, -6542.94, -50128.75, -89537.55, -126760.34, -116528.42, 0.000, 0.000, 0.000, 17:36:29.314
30, -6475.46, -6557.78, -6594.70, -6534.09, -50120.50, -89529.22, -126751.95, -116520.60, 0.000, 0.000, 0.000, 17:36:29.314
31, -6477.24, -6559.37, -6596.22, -6535.47, -50121.98, -89530.63, -126753.32, -116522.01, 0.000, 0.000, 0.000, 17:36:29.314
32, -6491.19, -6571.35, -6607.00, -6546.07, -50132.08, -89540.88, -126763.47, -116531.48, 0.020, 0.002, 0.990, 17:36:29.314
33, -6500.92, -6579.73, -6614.62, -6553.58, -50139.14, -89547.99, -126770.51, -116538.17, 0.000, 0.000, 0.000, 17:36:29.314
34, -6490.43, -6570.92, -6606.93, -6546.11, -50132.19, -89540.86, -126763.49, -116531.62, 0.000, 0.000, 0.000, 17:36:29.314
35, -6477.74, -6559.99, -6597.05, -6536.50, -50123.14, -89531.61, -126754.19, -116522.86, 0.000, 0.000, 0.000, 17:36:29.314
36, -6477.56, -6559.59, -6596.47, -6535.87, -50122.54, -89531.05, -126753.66, -116522.19, 0.000, 0.000, 0.000, 17:36:29.314
37, -6489.74, -6569.87, -6605.48, -6544.64, -50130.78, -89539.43, -126761.99, -116529.97, 0.000, 0.000, 0.000, 17:36:29.315
38, -6498.81, -6577.49, -6612.41, -6551.43, -50137.24, -89545.82, -126768.38, -116535.94, 0.000, 0.000, 0.000, 17:36:29.315
39, -6486.97, -6567.30, -6603.35, -6542.58, -50128.97, -89537.38, -126759.89, -116528.00, 0.000, 0.000, 0.000, 17:36:29.315
40, -6475.88, -6558.16, -6595.31, -6534.62, -50121.62, -89529.91, -126752.36, -116521.09, 0.000, 0.000, 0.000, 17:36:29.315
41, -6479.84, -6561.87, -6598.84, -6538.20, -50125.21, -89533.51, -126755.87, -116524.52, 0.000, 0.000, 0.000, 17:36:29.315
42, -6495.01, -6574.99, -6610.66, -6550.00, -50136.30, -89544.75, -126767.06, -116535.04, 0.026, 0.004, 0.988, 17:36:29.315
43, -6504.25, -6582.77, -6617.52, -6556.77, -50142.70, -89551.23, -126773.62, -116541.08, 0.000, 0.000, 0.000, 17:36:29.315
44, -6491.26, -6571.57, -6607.53, -6546.98, -50133.39, -89541.73, -126764.09, -116532.09, 0.000, 0.000, 0.000, 17:36:29.315
45, -6477.65, -6559.92, -6597.05, -6536.57, -50123.70, -89531.83, -126753.99, -116522.70, 0.000, 0.000, 0.000, 17:36:29.316
46, -6479.93, -6562.02, -6598.93, -6538.35, -50125.55, -89533.80, -126755.71, -116524.42, 0.000, 0.000, 0.000, 17:36:29.316
47, -6495.80, -6575.82, -6611.29, -6550.65, -50137.26, -89545.71, -126767.67, -116535.55, 0.000, 0.000, 0.000, 17:36:29.316
48, -6503.28, -6581.69, -6616.45, -6555.70, -50141.93, -89550.27, -126772.43, -116539.80, 0.000, 0.000, 0.000, 17:36:29.316
49, -6488.02, -6568.26, -6604.36, -6543.79, -50130.45, -89538.54, -126760.67, -116528.63, 0.000, 0.000, 0.000, 17:36:29.316
50, -6473.98, -6556.37, -6593.52, -6533.12, -50120.32, -89528.32, -126750.28, -116518.95, 0.000, 0.000, 0.000, 17:36:29.316
51, -6476.15, -6558.43, -6595.26, -6534.80, -50122.06, -89530.09, -126751.95, -116520.60, 0.000, 0.000, 0.000, 17:36:29.316
52, -6492.27, -6572.46, -6607.96, -6547.45, -50134.25, -89542.52, -126764.36, -116532.29, 0.028, 0.002, 0.988, 17:36:29.316
53, -6504.42, -6582.95, -6617.79, -6557.15, -50143.66, -89552.02, -126773.88, -116541.30, 0.000, 0.000, 0.000, 17:36:29.317
54, -6489.63, -6570.00, -6606.15, -6545.51, -50132.59, -89540.55, -126762.33, -116530.30, 0.000, 0.000, 0.000, 17:36:29.317
55, -6474.43, -6556.93, -6594.14, -6533.50, -50121.13, -89528.81, -126750.46, -116519.10, 0.000, 0.000, 0.000, 17:36:29.317
56, -6476.86, -6559.07, -6596.02, -6535.47, -50123.07, -89530.78, -126752.36, -116520.84, 0.000, 0.000, 0.000, 17:36:29.317
57, -6495.75, -6575.79, -6611.35, -6550.94, -50138.20, -89546.20, -126767.96, -116535.73, 0.000, 0.000, 0.000, 17:36:29.317
58, -6508.11, -6586.70, -6621.50, -6561.04, -50148.11, -89556.24, -126778.20, -116545.57, 0.000, 0.000, 0.000, 17:36:29.317
59, -6491.08, -6571.55, -6607.49, -6547.03, -50134.31, -89542.13, -126763.71, -116531.77, 0.000, 0.000, 0.000, 17:36:29.317
60, -6472.51, -6555.07, -6591.98, -6531.43, -50119.00, -89526.45, -126747.69, -116516.55, 0.000, 0.000, 0.000, 17:36:29.317
61, -6476.22, -6558.56, -6595.26, -6534.67, -50122.38, -89529.77, -126751.09, -116519.80, 0.000, 0.000, 0.000, 17:36:29.317
62, -6495.89, -6576.11, -6611.60, -6551.34, -50138.89, -89546.83, -126768.52, -116536.31, 0.028, 0.004, 0.978, 17:36:29.318
63, -6511.60, -6590.30, -6625.21, -6565.13, -50152.53, -89560.91, -126782.82, -116550.09, 0.000, 0.000, 0.000, 17:36:29.318
64, -6493.92, -6574.30, -6610.39, -6550.00, -50137.46, -89545.13, -126766.53, -116534.64, 0.000, 0.000, 0.000, 17:36:29.318
65, -6474.83, -6557.26, -6594.14, -6533.44, -50121.01, -89528.05, -126748.89, -116517.78, 0.000, 0.000, 0.000, 17:36:29.318
66, -6476.64, -6559.03, -6595.62, -6534.82, -50122.67, -89529.77, -126750.73, -116519.35, 0.000, 0.000, 0.000, 17:36:29.318
67, -6495.51, -6575.88, -6611.40, -6551.23, -50139.12, -89547.10, -126768.67, -116536.45, 0.000, 0.000, 0.000, 17:36:29.318
68, -6507.53, -6586.50, -6621.46, -6561.71, -50149.67, -89558.16, -126780.23, -116547.40, 0.000, 0.000, 0.000, 17:36:29.318
69, -6489.31, -6569.98, -6605.90, -6545.51, -50133.39, -89540.91, -126762.15, -116530.15, 0.000, 0.000, 0.000, 17:36:29.318
70, -6470.87, -6553.42, -6590.28, -6529.30, -50117.10, -89523.70, -126744.06, -116512.80, 0.000, 0.000, 0.000, 17:36:29.319
71, -6474.09, -6556.39, -6593.09, -6532.21, -50120.12, -89526.87, -126747.41, -116515.86, 0.000, 0.000, 0.000, 17:36:29.319
72, -6496.44, -6576.75, -6612.45, -6552.12, -50140.44, -89548.38, -126770.06, -116537.56, 0.030, 0.000, 0.976, 17:36:29.319
73, -6509.25, -6588.15, -6623.25, -6563.50, -50151.81, -89560.46, -126782.71, -116549.91, 0.000, 0.000, 0.000, 17:36:29.319
74, -6489.58, -6570.16, -6606.33, -6545.75, -50133.93, -89541.33, -126762.57, -116530.46, 0.000, 0.000, 0.000, 17:36:29.319
75, -6470.83, -6553.24, -6590.19, -6529.03, -50117.01, -89523.34, -126743.55, -116512.02, 0.000, 0.000, 0.000, 17:36:29.319
76, -6474.18, -6556.53, -6593.18, -6532.23, -50120.34, -89526.91, -126747.10, -116515.52, 0.000, 0.000, 0.000, 17:36:29.319
77, -6493.83, -6574.14, -6609.84, -6549.55, -50138.00, -89545.76, -126767.20, -116535.06, 0.000, 0.000, 0.000, 17:36:29.319
78, -6507.62, -6586.50, -6621.57, -6561.71, -50150.18, -89558.61, -126780.86, -116548.52, 0.000, 0.000, 0.000, 17:36:29.320
79, -6493.11, -6573.63, -6609.79, -6549.22, -50137.55, -89544.82, -126765.95, -116534.03, 0.000, 0.000, 0.000, 17:36:29.320
80, -6477.00, -6559.34, -6596.54, -6535.27, -50123.63, -89529.89, -126749.85, -116518.21, 0.000, 0.000, 0.000, 17:36:29.320
81, -6480.24, -6562.45, -6599.29, -6538.15, -50126.89, -89533.27, -126753.43, -116521.61, 0.000, 0.000, 0.000, 17:36:29.320
82, -6497.92, -6578.10, -6613.79, -6553.20, -50141.98, -89549.51, -126770.66, -116538.64, 0.096, -0.026, 0.990, 17:36:29.320
83, -6508.56, -6587.26, -6622.31, -6562.00, -50150.70, -89558.90, -126780.63, -116548.32, 0.000, 0.000, 0.000, 17:36:29.320
84, -6492.35, -6573.00, -6608.94, -6548.44, -50136.88, -89544.02, -126764.88, -116532.88, 0.000, 0.000, 0.000, 17:36:29.320
85, -6476.19, -6558.72, -6595.57, -6534.62, -50123.27, -89529.44, -126749.45, -116517.77, 0.000, 0.000, 0.000, 17:36:29.321
86, -6478.63, -6560.93, -6597.61, -6536.66, -50125.42, -89531.83, -126751.84, -116520.18, 0.000, 0.000, 0.000, 17:36:29.321
87, -6496.96, -6577.43, -6612.96, -6552.61, -50141.31, -89548.77, -126769.68, -116537.79, 0.000, 0.000, 0.000, 17:36:29.321
88, -6507.64, -6586.77, -6621.75, -6561.85, -50150.45, -89558.50, -126780.07, -116547.78, 0.000, 0.000, 0.000, 17:36:29.321
89, -6490.32, -6570.90, -6606.95, -6546.51, -50134.98, -89542.07, -126762.70, -116530.73, 0.000, 0.000, 0.000, 17:36:29.321
90, -6474.38, -6556.71, -6593.54, -6532.52, -50121.04, -89527.00, -126746.81, -116515.21, 0.000, 0.000, 0.000, 17:36:29.788
91, -6478.94, -6561.20, -6597.77, -6536.83, -50125.46, -89531.56, -126751.48, -116519.75, 0.000, 0.000, 0.000, 17:36:29.788
92, -6495.80, -6576.60, -6612.20, -6551.99, -50140.71, -89548.17, -126768.92, -116536.78, 0.104, 0.010, 0.988, 17:36:29.788
93, -6504.85, -6584.42, -6619.67, -6559.83, -50148.64, -89556.69, -126778.09, -116545.84, 0.000, 0.000, 0.000, 17:36:29.788
94, -6488.76, -6569.51, -6605.50, -6545.08, -50133.57, -89540.55, -126760.96, -116529.05, 0.000, 0.000, 0.000, 17:36:29.788
95, -6475.79, -6558.02, -6594.61, -6533.62, -50121.93, -89528.03, -126747.40, -116515.80, 0.000, 0.000, 0.000, 17:36:29.788
96, -6479.57, -6561.73, -6598.17, -6537.26, -50125.66, -89531.97, -126751.51, -116519.82, 0.000, 0.000, 0.000, 17:36:29.788
97, -6494.21, -6574.97, -6610.55, -6550.49, -50139.12, -89546.70, -126767.24, -116535.20, 0.000, 0.000, 0.000, 17:36:29.788
98, -6502.93, -6582.68, -6617.84, -6558.27, -50146.98, -89555.28, -126776.52, -116544.38, 0.000, 0.000, 0.000, 17:36:29.789
99, -6489.27, -6570.27, -6605.99, -6545.80, -50134.09, -89541.15, -126761.32, -116529.41, 0.000, 0.000, 0.000, 17:36:29.789
100, -6474.38, -6556.73, -6593.09, -6532.14, -50120.14, -89526.06, -126745.09, -116513.36, 0.000, 0.000, 0.000, 17:36:29.789
101, -6475.50, -6557.76, -6593.90, -6532.97, -50121.17, -89527.27, -126746.50, -116514.72, 0.000, 0.000, 0.000, 17:36:29.789
102, -6489.85, -6570.79, -6606.17, -6546.22, -50134.74, -89542.63, -126763.38, -116531.48, 0.062, 0.004, 0.958, 17:36:29.789
103, -6500.09, -6580.06, -6615.09, -6555.86, -50144.48, -89553.52, -126775.24, -116543.51, 0.000, 0.000, 0.000, 17:36:29.789
104, -6488.20, -6569.45, -6605.14, -6544.93, -50132.86, -89540.13, -126760.29, -116528.49, 0.000, 0.000, 0.000, 17:36:29.789
105, -6473.24, -6555.95, -6592.13, -6530.93, -50118.33, -89523.90, -126742.41, -116510.52, 0.000, 0.000, 0.000, 17:36:29.789
106, -6474.27, -6556.97, -6592.87, -6532.01, -50119.29, -89525.48, -126744.20, -116512.40, 0.000, 0.000, 0.000, 17:36:29.790
107, -6493.36, -6574.70, -6609.79, -6550.27, -50138.14, -89546.47, -126767.52, -116536.07, 0.000, 0.000, 0.000, 17:36:29.790
108, -6503.58, -6583.86, -6618.35, -6559.61, -50147.79, -89557.34, -126779.85, -116548.72, 0.000, 0.000, 0.000, 17:36:29.790
109, -6488.47, -6569.94, -6605.30, -6545.40, -50132.84, -89540.33, -126760.56, -116529.07, 0.000, 0.000, 0.000, 17:36:29.790
110, -6474.41, -6557.49, -6593.61, -6532.65, -50119.56, -89525.23, -126743.44, -116511.46, 0.000, 0.000, 0.000, 17:36:29.790
111, -6477.96, -6561.00, -6596.80, -6536.12, -50123.11, -89529.38, -126747.89, -116516.00, 0.000, 0.000, 0.000, 17:36:29.790
112, -6496.02, -6577.40, -6612.16, -6552.48, -50139.90, -89548.28, -126769.13, -116538.02, 0.000, 0.000, 0.000, 17:36:29.790
113, -6506.84, -6586.97, -6621.17, -6562.00, -50149.42, -89558.99, -126781.15, -116550.59, 0.070, 0.026, 0.982, 17:36:29.790
114, -6490.14, -6571.86, -6607.26, -6547.07, -50134.02, -89541.58, -126761.90, -116530.52, 0.000, 0.000, 0.000, 17:36:29.791
115, -6474.81, -6558.36, -6594.57, -6533.79, -50120.34, -89526.42, -126744.76, -116512.76, 0.000, 0.000, 0.000, 17:36:29.791
116, -6477.87, -6561.09, -6596.94, -6536.50, -50123.00, -89529.51, -126748.31, -116516.38, 0.000, 0.000, 0.000, 17:36:29.791
117, -6496.29, -6577.58, -6612.23, -6552.50, -50139.14, -89547.61, -126768.54, -116537.43, 0.000, 0.000, 0.000, 17:36:29.791
118, -6506.61, -6586.43, -6620.41, -6561.15, -50147.68, -89557.29, -126779.41, -116549.05, 0.000, 0.000, 0.000, 17:36:29.791
119, -6488.87, -6570.32, -6605.59, -6545.73, -50131.86, -89539.79, -126759.89, -116528.65, 0.000, 0.000, 0.000, 17:36:29.791
120, -6474.16, -6557.47, -6593.67, -6533.24, -50119.07, -89525.39, -126743.51, -116511.21, 0.000, 0.000, 0.000, 17:36:29.791
121, -6478.07, -6561.15, -6597.01, -6536.86, -50122.54, -89529.33, -126747.87, -116515.68, 0.000, 0.000, 0.000, 17:36:29.791
122, -6495.06, -6576.35, -6610.95, -6551.94, -50137.98, -89547.26, -126768.74, -116538.13, 0.000, 0.000, 0.000, 17:36:29.792
123, -6504.96, -6585.02, -6619.07, -6560.71, -50147.14, -89557.91, -126781.70, -116552.34, 0.052, 0.012, 0.978, 17:36:29.792
124, -6486.57, -6568.10, -6603.31, -6543.79, -50129.20, -89537.48, -126757.90, -116526.68, 0.000, 0.000, 0.000, 17:36:29.792
125, -6471.01, -6554.16, -6590.12, -6529.41, -50113.93, -89519.83, -126736.51, -116503.01, 0.000, 0.000, 0.000, 17:36:29.792
126, -6475.43, -6558.38, -6594.06, -6533.57, -50118.24, -89524.81, -126742.12, -116508.98, 0.000, 0.000, 0.000, 17:36:29.792
127, -6495.31, -6576.80, -6611.65, -6552.99, -50139.14, -89549.73, -126772.97, -116543.83, 0.000, 0.000, 0.000, 17:36:29.792
128, -6506.82, -6587.33, -6621.77, -6564.33, -50151.48, -89564.87, -126792.37, -116566.34, 0.000, 0.000, 0.000, 17:36:29.792
129, -6488.55, -6570.38, -6605.59, -6546.22, -50131.23, -89540.33, -126761.03, -116529.95, 0.000, 0.000, 0.000, 17:36:29.792
130, -6468.73, -6552.06, -6587.82, -6526.55, -50109.61, -89514.06, -126727.48, -116490.02, 0.000, 0.000, 0.000, 17:36:29.793
131, -6429.19, -6515.09, -6545.95, -6486.01, -50114.98, -89520.72, -126735.02, -116498.20, 0.000, 0.000, 0.000, 17:36:29.793
132, -1095.30, -1203.22, -1106.57, -1090.25, -50162.72, -89610.09, -126793.62, -116560.09, 0.000, 0.000, 0.000, 17:36:29.793
133, 12322.47, 12320.59, 12455.91, 12421.96, -50308.21, -89895.74, -126937.59, -116680.77, 0.044, 0.000, 0.970, 17:36:29.793
134, 19674.43, 19703.13, 19822.64, 19786.52, -50478.75, -90205.13, -127102.54, -116880.66, 0.000, 0.000, 0.000, 17:36:29.793
135, 28753.37, 28777.91, 28909.25, 28873.96, -50712.13, -90631.36, -127330.80, -120092.79, 0.000, 0.000, 0.000, 17:36:29.793
136, 40391.57, 40410.37, 40555.63, 40522.17, -44613.21, -91159.04, -127604.59, -132968.53, 0.000, 0.000, 0.000, 17:36:29.793
137, 53528.87, 53542.20, 53701.88, 53669.89, 16501.87, -91737.84, -127901.17, -153937.11, 0.000, 0.000, 0.000, 17:36:29.793
138, 65745.91, 65754.56, 65927.05, 65896.12, 64730.47, -92283.38, -128184.34, -170325.88, 0.000, 0.000, 0.000, 17:36:29.794
139, 74586.61, 74591.93, 74773.53, 74743.29, 74756.37, -92700.70, -128411.86, -173969.59, 0.000, 0.000, 0.000, 17:36:29.794
140, 82768.55, 82770.56, 82960.87, 82931.09, 82943.05, -84331.56, -128622.69, -177045.39, 0.000, 0.000, 0.000, 17:36:29.794
141, 92387.42, 92385.61, 92585.80, 92556.70, 92569.68, -11806.93, -128851.41, -186014.20, 0.000, 0.000, 0.000, 17:36:29.794
142, 103288.30, 103282.18, 103493.78, 103465.35, 103472.57, 84401.55, -129099.24, -187500.02, 0.000, 0.000, 0.000, 17:36:29.794
143, 113288.12, 113278.08, 113500.45, 113472.74, 113475.42, 113322.42, -128981.83, -187500.02, 0.040, -0.002, 0.976, 17:36:29.794
144, 119810.95, 119798.38, 120027.26, 119999.90, 120000.39, 119976.07, -112287.60, -187500.02, 0.000, 0.000, 0.000, 17:36:29.794
145, 125787.39, 125772.45, 126007.98, 125980.93, 125978.70, 125953.51, -48459.90, -187500.02, 0.000, 0.000, 0.000, 17:36:29.794
146, 133260.61, 133242.86, 133486.61, 133459.98, 133454.19, 133428.16, 42057.62, -187500.02, 0.000, 0.000, 0.000, 17:36:29.795
147, 141960.80, 141939.81, 142192.11, 142166.09, 142157.25, 142130.11, 124568.81, -187500.02, 0.000, 0.000, 0.000, 17:36:29.795
148, 149650.31, 149626.55, 149886.41, 149860.86, 149849.08, 149821.13, 149608.45, -187500.02, 0.000, 0.000, 0.000, 17:36:29.795
149, 154058.48, 154033.02, 154297.11, 154271.83, 154258.44, 154229.92, 154173.36, -187500.02, 0.000, 0.000, 0.000, 17:36:29.795
150, 158125.94, 158098.83, 158367.14, 158342.08, 158326.98, 158298.02, 158244.11, -187500.02, 0.000, 0.000, 0.000, 17:36:29.795
151, 163950.55, 163921.23, 164195.53, 164170.63, 164153.39, 164123.69, 164073.42, -187500.02, 0.000, 0.000, 0.000, 17:36:29.795
152, 171131.91, 171099.98, 171381.53, 171356.98, 171336.86, 171306.33, 171260.13, -187500.02, 0.000, 0.000, 0.000, 17:36:29.795
153, 177315.63, 177281.47, 177569.05, 177544.95, 177522.20, 177490.80, 177447.34, -187500.02, 0.028, -0.008, 0.978, 17:36:29.796
154, 180173.81, 180138.58, 180428.86, 180404.97, 180380.92, 180349.09, 180306.58, -187500.02, 0.000, 0.000, 0.000, 17:36:29.796
155, 182824.41, 182788.27, 183081.25, 183057.41, 183032.23, 183000.13, 182959.55, -187500.02, 0.000, 0.000, 0.000, 17:36:29.796
156, 187277.92, 187240.17, 187500.00, 187500.00, 187486.97, 187454.27, 187416.39, -187500.02, 0.000, 0.000, 0.000, 17:36:29.796
157, 187500.00, 187500.00, 187500.00, 187500.00, 187500.00, 187500.00, 187500.00, -187500.02, 0.000, 0.000, 0.000, 17:36:29.796
158, 187500.00, 187500.00, 187500.00, 187500.00, 187500.00, 187500.00, 184129.33, -187500.02, 0.000, 0.000, 0.000, 17:36:29.796
159, 187500.00, 187500.00, 187500.00, 187500.00, 187500.00, 187500.00, 156994.73, -187500.02, 0.000, 0.000, 0.000, 17:36:29.796
160, 187500.00, 187500.00, 187500.00, 187500.00, 187500.00, 187500.00, 128545.41, -187500.02, 0.000, 0.000, 0.000, 17:36:29.796
161, 187500.00, 187500.00, 187500.00, 187500.00, 187500.00, 187500.00, 96167.73, -187500.02, 0.000, 0.000, 0.000, 17:36:29.797
162, 187500.00, 187500.00, 187500.00, 187500.00, 187500.00, 187500.00, 69169.02, -187500.02, 0.000, 0.000, 0.000, 17:36:29.797
163, 187500.00, 187500.00, 187500.00, 187500.00, 187500.00, 187500.00, 50137.89, -187500.02, 0.032, -0.008, 0.982, 17:36:29.797
164, 187500.00, 187500.00, 187500.00, 187500.00, 187500.00, 187500.00, 43312.45, -187500.02, 0.000, 0.000, 0.000, 17:36:29.797
165, 187500.00, 187500.00, 187500.00, 187500.00, 187500.00, 187500.00, 40742.56, -187500.02, 0.000, 0.000, 0.000, 17:36:29.797
166, 187500.00, 187500.00, 187500.00, 187500.00, 187500.00, 187500.00, 39955.13, -187500.02, 0.000, 0.000, 0.000, 17:36:29.797
167, 187500.00, 187500.00, 187500.00, 187500.00, 187500.00, 187500.00, 39959.87, -187500.02, 0.000, 0.000, 0.000, 17:36:29.797
168, 187500.00, 187500.00, 187500.00, 187500.00, 187500.00, 187500.00, 39850.90, -187500.02, 0.000, 0.000, 0.000, 17:36:29.797
169, 187500.00, 187500.00, 187500.00, 187500.00, 187500.00, 187500.00, 40508.71, -179395.78, 0.000, 0.000, 0.000, 17:36:29.798
170, 187500.00, 187500.00, 187500.00, 187500.00, 187500.00, 187500.00, 41079.46, -170978.86, 0.000, 0.000, 0.000, 17:36:29.798
171, 187500.00, 187500.00, 187500.00, 187500.00, 187500.00, 187500.00, 41452.31, -164122.30, 0.000, 0.000, 0.000, 17:36:29.798
172, 187500.00, 187500.00, 187500.00, 187500.00, 187500.00, 187500.00, 41664.41, -158735.53, 0.000, 0.000, 0.000, 17:36:29.798
173, 187500.00, 187500.00, 187500.00, 187500.00, 187500.00, 187500.00, 41552.63, -153487.13, 0.044, -0.006, 0.980, 17:36:29.798
174, 187500.00, 187500.00, 187500.00, 187500.00, 187500.00, 187500.00, 41728.02, -148887.77, 0.000, 0.000, 0.000, 17:36:29.798
175, 187500.00, 187500.00, 187500.00, 187500.00, 187500.00, 187500.00, 42005.59, -142864.80, 0.000, 0.000, 0.000, 17:36:29.798
176, 187500.00, 187500.00, 187500.00, 187500.00, 187500.00, 187500.00, 42488.41, -133382.63, 0.000, 0.000, 0.000, 17:36:29.798
177, 187500.00, 187500.00, 187500.00, 187500.00, 187500.00, 187500.00, 43211.80, -120128.42, 0.000, 0.000, 0.000, 17:36:29.799
178, 187500.00, 187500.00, 187500.00, 187500.00, 187500.00, 187500.00, 43579.35, -106757.72, 0.000, 0.000, 0.000, 17:36:29.799
179, 187500.00, 187500.00, 187500.00, 187500.00, 187500.00, 187500.00, 43964.14, -98368.28, 0.000, 0.000, 0.000, 17:36:29.799
180, 187500.00, 187500.00, 187500.00, 187500.00, 187500.00, 187500.00, 44228.45, -92034.58, 0.000, 0.000, 0.000, 17:36:29.799
181, 187500.00, 187500.00, 187500.00, 187500.00, 187500.00, 187500.00, 44402.10, -85990.98, 0.000, 0.000, 0.000, 17:36:29.799
182, 187500.00, 187500.00, 187500.00, 187500.00, 187500.00, 187500.00, 44492.00, -81512.52, 0.000, 0.000, 0.000, 17:36:29.799
183, 187500.00, 187500.00, 187500.00, 187500.00, 187500.00, 187500.00, 44049.79, -80723.34, 0.042, -0.002, 0.978, 17:36:29.799
184, 187500.00, 187500.00, 187500.00, 187500.00, 187500.00, 187500.00, 43652.57, -82857.09, 0.000, 0.000, 0.000, 17:36:29.799
185, 187500.00, 187500.00, 187500.00, 187500.00, 187500.00, 187500.00, 43283.04, -84813.00, 0.000, 0.000, 0.000, 17:36:29.800
186, 187500.00, 187500.00, 187500.00, 187500.00, 187500.00, 187500.00, 41942.20, -85128.47, 0.000, 0.000, 0.000, 17:36:29.800
187, 187500.00, 187500.00, 187500.00, 187500.00, 187500.00, 187500.00, 33854.96, -80324.16, 0.000, 0.000, 0.000, 17:36:29.800
188, 187500.00, 187500.00, 187500.00, 187500.00, 187500.00, 187500.00, 21911.17, -72714.76, 0.000, 0.000, 0.000, 17:36:29.800
189, 187500.00, 187500.00, 187500.00, 187500.00, 187500.00, 187500.00, 11343.96, -64583.82, 0.000, 0.000, 0.000, 17:36:29.800
190, 187500.00, 187500.00, 187500.00, 187500.00, 187500.00, 187500.00, 4748.38, -59821.96, 0.000, 0.000, 0.000, 17:36:29.800
191, 187500.00, 187500.00, 187500.00, 187500.00, 187500.00, 187500.00, 1998.87, -61556.34, 0.000, 0.000, 0.000, 17:36:29.800
192, 187500.00, 187500.00, 187500.00, 187500.00, 187500.00, 187500.00, -423.05, -65921.80, 0.000, 0.000, 0.000, 17:36:29.800
193, 187500.00, 187500.00, 187500.00, 187500.00, 187500.00, 187500.00, -967.16, -66666.49, 0.062, 0.006, 0.980, 17:36:29.801
194, 187500.00, 187500.00, 187500.00, 187500.00, 187500.00, 187500.00, -1522.80, -66629.41, 0.000, 0.000, 0.000, 17:36:29.801
195, 187500.00, 187500.00, 187500.00, 187500.00, 187500.00, 187500.00, -1974.49, -68331.43, 0.000, 0.000, 0.000, 17:36:29.801
196, 187500.00, 187500.00, 187500.00, 187500.00, 187500.00, 187500.00, -3473.48, -66789.16, 0.000, 0.000, 0.000, 17:36:29.801
197, 187500.00, 187500.00, 187500.00, 187500.00, 187500.00, 187500.00, -3507.44, -63835.93, 0.000, 0.000, 0.000, 17:36:29.801
198, 187500.00, 187500.00, 187500.00, 187500.00, 187500.00, 187500.00, -3212.42, -66251.35, 0.000, 0.000, 0.000, 17:36:29.801
199, 187500.00, 187500.00, 187500.00, 187500.00, 187500.00, 187500.00, -2570.65, -72796.79, 0.000, 0.000, 0.000, 17:36:29.801
200, 187500.00, 187500.00, 187500.00, 187500.00, 187500.00, 187500.00, -2658.76, -76787.76, 0.000, 0.000, 0.000, 17:36:29.801
201, 187500.00, 187500.00, 187500.00, 187500.00, 187500.00, 187500.00, -3052.22, -75813.34, 0.000, 0.000, 0.000, 17:36:29.801
202, 187500.00, 187500.00, 187500.00, 187500.00, 187500.00, 187500.00, -4409.71, -69009.98, 0.000, 0.000, 0.000, 17:36:29.802
203, 187500.00, 187500.00, 187500.00, 187500.00, 187500.00, 187500.00, -2898.04, -64989.28, 0.000, 0.000, 0.000, 17:36:29.802
204, 187500.00, 187500.00, 187500.00, 187500.00, 187500.00, 187500.00, -3744.34, -66614.16, 0.058, -0.004, 0.982, 17:36:29.802
205, 187500.00, 187500.00, 187500.00, 187500.00, 187500.00, 187500.00, -8709.78, -65912.34, 0.000, 0.000, 0.000, 17:36:29.802
206, 187500.00, 187500.00, 187500.00, 187500.00, 187500.00, 187500.00, -15170.49, -62531.06, 0.000, 0.000, 0.000, 17:36:29.802
207, 187500.00, 187500.00, 187500.00, 187500.00, 187500.00, 187500.00, -22514.78, -62972.21, 0.000, 0.000, 0.000, 17:36:29.802
208, 187500.00, 187500.00, 187500.00, 187500.00, 187500.00, 187500.00, -24933.24, -62897.00, 0.000, 0.000, 0.000, 17:36:29.802
209, 187500.00, 187500.00, 187500.00, 187500.00, 187500.00, 187500.00, -18846.59, -56839.75, 0.000, 0.000, 0.000, 17:36:29.802
210, 187500.00, 187500.00, 187500.00, 187500.00, 187500.00, 187500.00, -23460.75, -68811.16, 0.000, 0.000, 0.000, 17:36:30.268
211, 187500.00, 187500.00, 187500.00, 187500.00, 187500.00, 187500.00, -30490.79, -75714.01, 0.000, 0.000, 0.000, 17:36:30.268
212, 187500.00, 187500.00, 187500.00, 187500.00, 187500.00, 162261.09, -34067.16, -73110.61, 0.000, 0.000, 0.000, 17:36:30.268
213, 187500.00, 187500.00, 187500.00, 187500.00, 187500.00, 131280.64, -30494.53, -62738.98, 0.000, 0.000, 0.000, 17:36:30.269
214, 187500.00, 187500.00, 187500.00, 187500.00, 187500.00, 123374.88, 7927.52, -22622.22, 0.044, -0.008, 0.986, 17:36:30.269
215, 187500.00, 187500.00, 187500.00, 187500.00, 187500.00, 129268.91, 55033.55, 24216.48, 0.000, 0.000, 0.000, 17:36:30.269
216, 187500.00, 187500.00, 187500.00, 187500.00, 187500.00, 113091.13, 38585.77, 6223.91, 0.000, 0.000, 0.000, 17:36:30.269
217, 187500.00, 187500.00, 187500.00, 187500.00, 187500.00, 68826.05, -41396.84, -71170.55, 0.000, 0.000, 0.000, 17:36:30.269
218, 187500.00, 187500.00, 187500.00, 187500.00, 187500.00, 42176.85, -71301.81, -93779.63, 0.000, 0.000, 0.000, 17:36:30.269
219, 187500.00, 187500.00, 187500.00, 187500.00, 187500.00, 91521.25, 39472.96, 1042.33, 0.000, 0.000, 0.000, 17:36:30.269
220, 187500.00, 187500.00, 187500.00, 187500.00, 187500.00, 126667.17, 108396.55, 60120.34, 0.000, 0.000, 0.000, 17:36:30.270
221, 187500.00, 187500.00, 187500.00, 187500.00, 187500.00, 95465.33, 65815.94, 41511.73, 0.000, 0.000, 0.000, 17:36:30.270
222, 187500.00, 187500.00, 187500.00, 187500.00, 181620.97, 17139.18, -38122.11, -4566.62, 0.000, 0.000, 0.000, 17:36:30.270
223, 187500.00, 187500.00, 187500.00, 187500.00, 143976.19, 1221.25, -50600.41, -21598.87, 0.000, 0.000, 0.000, 17:36:30.270
224, 187500.00, 187500.00, 187500.00, 187500.00, 167218.63, 112290.38, 96185.77, 1377.18, 0.052, 0.002, 0.986, 17:36:30.270
225, 187500.00, 187500.00, 187500.00, 187500.00, 187500.00, 183489.39, 181800.17, 7784.98, 0.000, 0.000, 0.000, 17:36:30.270
226, 187018.63, 186980.98, 187278.88, 187254.89, 171210.52, 173626.69, 163417.98, -7900.13, 0.000, 0.000, 0.000, 17:36:30.270
227, 187185.30, 187147.55, 187445.39, 187421.69, 78694.25, 86713.81, 57005.57, -6381.42, 0.000, 0.000, 0.000, 17:36:30.270
228, 187500.00, 187500.00, 187500.00, 187500.00, 32873.85, 48612.38, 16628.69, -1487.49, 0.000, 0.000, 0.000, 17:36:30.270
229, 186623.61, 186586.08, 186883.47, 186859.84, 145010.64, 153781.45, 139440.97, -14239.16, 0.000, 0.000, 0.000, 17:36:30.271
230, 185632.55, 185595.41, 185891.19, 185868.30, 185518.98, 185671.94, 185338.09, -26971.96, 0.000, 0.000, 0.000, 17:36:30.271
231, 185449.47, 185412.47, 185707.97, 185685.08, 185658.17, 185625.13, 185610.41, -29669.01, 0.000, 0.000, 0.000, 17:36:30.271
232, 185581.36, 185544.33, 185840.17, 185816.95, 185789.92, 185756.94, 185742.55, -28366.60, 0.000, 0.000, 0.000, 17:36:30.271
233, 185652.98, 185615.77, 185912.06, 185888.59, 185861.52, 185828.44, 185814.16, -27837.51, 0.000, 0.000, 0.000, 17:36:30.271
234, 185457.02, 185419.77, 185716.03, 185692.45, 185665.61, 185632.48, 185617.44, -30789.17, 0.048, 0.004, 0.976, 17:36:30.271
235, 185266.19, 185229.09, 185525.08, 185501.50, 185474.72, 185441.75, 185426.00, -33741.32, 0.000, 0.000, 0.000, 17:36:30.271
236, 185257.02, 185220.03, 185516.00, 185492.34, 185465.58, 185432.64, 185416.75, -34270.03, 0.000, 0.000, 0.000, 17:36:30.271
237, 185406.95, 185369.56, 185665.97, 185642.30, 185615.56, 185582.53, 185567.13, -32660.35, 0.000, 0.000, 0.000, 17:36:30.272
238, 185504.75, 185466.70, 185763.86, 185740.22, 185713.47, 185680.36, 185665.16, -31749.09, 0.000, 0.000, 0.000, 17:36:30.272
239, 185344.77, 185306.81, 185603.83, 185580.16, 185553.38, 185520.48, 185504.45, -34285.92, 0.000, 0.000, 0.000, 17:36:30.272
240, 185174.94, 185137.03, 185433.80, 185410.03, 185383.42, 185350.52, 185333.86, -36950.43, 0.000, 0.000, 0.000, 17:36:30.272
241, 185165.56, 185127.73, 185424.28, 185400.61, 185373.89, 185341.06, 185324.44, -37456.31, 0.000, 0.000, 0.000, 17:36:30.272
242, 185291.63, 185254.17, 185550.59, 185526.94, 185500.16, 185467.27, 185450.94, -36096.21, 0.000, 0.000, 0.000, 17:36:30.273
243, 185364.55, 185327.09, 185623.63, 185599.89, 185573.19, 185540.17, 185523.97, -35410.23, 0.000, 0.000, 0.000, 17:36:30.273
244, 185204.25, 185166.83, 185463.09, 185439.45, 185412.75, 185379.86, 185362.97, -37952.68, 0.036, -0.004, 0.978, 17:36:30.273
245, 185038.38, 185000.94, 185296.98, 185273.56, 185246.83, 185214.03, 185196.38, -40587.26, 0.000, 0.000, 0.000, 17:36:30.273
246, 185021.14, 184983.67, 185279.80, 185256.27, 185229.48, 185196.78, 185178.94, -41143.05, 0.000, 0.000, 0.000, 17:36:30.274
247, 185135.89, 185098.80, 185395.13, 185371.45, 185344.77, 185311.91, 185294.56, -39913.20, 0.000, 0.000, 0.000, 17:36:30.274
248, 185199.69, 185163.16, 185459.59, 185435.78, 185409.19, 185376.16, 185359.08, -39410.41, 0.000, 0.000, 0.000, 17:36:30.274
249, 185027.91, 184991.39, 185287.53, 185263.83, 185237.30, 185204.31, 185186.39, -42109.10, 0.000, 0.000, 0.000, 17:36:30.274
250, 184859.27, 184822.61, 185118.58, 185094.92, 185068.42, 185035.67, 185016.88, -44755.97, 0.000, 0.000, 0.000, 17:36:30.274
251, 184849.30, 184812.70, 185108.63, 185084.94, 185058.61, 185025.67, 185006.91, -45241.49, 0.000, 0.000, 0.000, 17:36:30.274
252, 184977.08, 184940.66, 185236.61, 185213.00, 185186.45, 185153.48, 185135.16, -43813.38, 0.000, 0.000, 0.000, 17:36:30.275
253, 185050.06, 185013.67, 185309.61, 185286.02, 185259.33, 185226.31, 185208.17, -43168.37, 0.000, 0.000, 0.000, 17:36:30.275
254, 184860.94, 184824.48, 185120.25, 185096.64, 185070.20, 185037.30, 185018.14, -46061.89, 0.030, 0.002, 0.974, 17:36:30.275
255, 184675.67, 184639.13, 184934.70, 184911.03, 184885.00, 184852.08, 184832.02, -48926.09, 0.000, 0.000, 0.000, 17:36:30.275
0, 184664.70, 184628.16, 184923.80, 184900.08, 184874.02, 184841.19, 184820.89, -49405.67, 0.000, 0.000, 0.000, 17:36:30.275
1, 184801.94, 184765.39, 185061.22, 185037.48, 185011.17, 184978.30, 184958.53, -47840.24, 0.000, 0.000, 0.000, 17:36:30.275
2, 184882.25, 184845.72, 185141.50, 185117.86, 185091.33, 185058.42, 185039.00, -47079.97, 0.000, 0.000, 0.000, 17:36:30.275
3, 184702.41, 184665.86, 184961.42, 184937.70, 184911.58, 184878.67, 184858.38, -49902.88, 0.000, 0.000, 0.000, 17:36:30.276
4, 184522.55, 184485.89, 184781.33, 184757.59, 184731.64, 184698.83, 184677.69, -52708.41, 0.000, 0.000, 0.000, 17:36:30.276
5, 184509.86, 184473.28, 184768.66, 184744.92, 184718.97, 184686.16, 184664.88, -53211.88, 0.000, 0.000, 0.000, 17:36:30.276
6, 184640.80, 184604.14, 184899.77, 184875.91, 184849.70, 184816.94, 184796.17, -51759.26, 0.000, 0.000, 0.000, 17:36:30.276
7, 184720.86, 184684.25, 184979.95, 184956.05, 184929.72, 184896.94, 184876.38, -50990.47, 0.000, 0.000, 0.000, 17:36:30.276
8, 184563.27, 184526.78, 184822.23, 184798.50, 184772.25, 184739.52, 184718.13, -53491.61, 0.066, 0.006, 0.966, 17:36:30.276
9, 184399.52, 184363.06, 184658.27, 184634.77, 184608.61, 184575.80, 184553.61, -56109.25, 0.000, 0.000, 0.000, 17:36:30.276
10, 184385.41, 184348.89, 184644.09, 184620.58, 184594.41, 184561.66, 184539.23, -56639.21, 0.000, 0.000, 0.000, 17:36:30.276
11, 184477.66, 184441.41, 184736.58, 184712.94, 184686.73, 184654.03, 184631.86, -55751.33, 0.000, 0.000, 0.000, 17:36:30.277
12, 184497.73, 184461.55, 184756.67, 184732.98, 184706.88, 184674.05, 184651.95, -55862.13, 0.000, 0.000, 0.000, 17:36:30.277
13, 184423.95, 184387.72, 184682.69, 184659.11, 184632.95, 184600.28, 184577.64, -57053.88, 0.000, 0.000, 0.000, 17:36:30.277
14, 184360.94, 184324.75, 184619.61, 184596.03, 184569.95, 184537.30, 184514.25, -58129.22, 0.000, 0.000, 0.000, 17:36:30.277
15, 184343.69, 184307.52, 184602.31, 184578.75, 184552.72, 184520.02, 184496.81, -58759.47, 0.000, 0.000, 0.000, 17:36:30.277
16, 184354.72, 184318.47, 184613.41, 184589.75, 184563.75, 184530.94, 184507.83, -59098.03, 0.000, 0.000, 0.000, 17:36:30.277
17, 184342.92, 184306.63, 184601.52, 184577.92, 184551.94, 184519.09, 184495.73, -59656.07, 0.000, 0.000, 0.000, 17:36:30.277
18, 184274.64, 184238.52, 184533.20, 184509.64, 184483.67, 184450.92, 184427.08, -60756.00, 0.034, 0.000, 0.980, 17:36:30.278
19, 184218.47, 184182.30, 184477.03, 184453.42, 184427.55, 184394.78, 184370.53, -61755.90, 0.000, 0.000, 0.000, 17:36:30.278
20, 184196.81, 184160.73, 184455.33, 184431.77, 184405.94, 184373.19, 184348.70, -62407.34, 0.000, 0.000, 0.000, 17:36:30.278
21, 184202.86, 184166.70, 184461.39, 184437.77, 184411.92, 184379.06, 184354.64, -62822.79, 0.000, 0.000, 0.000, 17:36:30.278
22, 184189.23, 184152.97, 184447.69, 184424.08, 184398.23, 184365.31, 184340.73, -63417.30, 0.000, 0.000, 0.000, 17:36:30.278
23, 184123.20, 184087.08, 184381.66, 184358.03, 184332.33, 184299.45, 184274.44, -64461.73, 0.000, 0.000, 0.000, 17:36:30.279
24, 184065.45, 184029.42, 184323.92, 184300.34, 184274.55, 184241.83, 184216.44, -65426.50, 0.000, 0.000, 0.000, 17:36:30.279
25, 184043.23, 184007.17, 184301.73, 184278.08, 184252.31, 184219.50, 184193.88, -66086.13, 0.000, 0.000, 0.000, 17:36:30.279
26, 184047.03, 184010.91, 184305.34, 184281.80, 184256.02, 184223.23, 184197.45, -66525.59, 0.000, 0.000, 0.000, 17:36:30.279
27, 184033.38, 183997.20, 184291.58, 184267.91, 184242.25, 184209.45, 184183.47, -67122.69, 0.000, 0.000, 0.000, 17:36:30.279
28, 183971.50, 183935.45, 184229.69, 184206.06, 184180.36, 184147.70, 184121.33, -68148.48, 0.040, 0.006, 0.980, 17:36:30.279
29, 183916.30, 183880.28, 184174.61, 184150.97, 184125.27, 184092.61, 184065.88, -69104.35, 0.000, 0.000, 0.000, 17:36:30.279
30, 183897.34, 183861.23, 184155.56, 184131.97, 184106.33, 184073.61, 184046.67, -69768.27, 0.000, 0.000, 0.000, 17:36:30.279
31, 183901.91, 183865.88, 184160.13, 184136.50, 184110.94, 184078.14, 184051.08, -70213.94, 0.000, 0.000, 0.000, 17:36:30.280
32, 183887.84, 183851.72, 184146.03, 184122.36, 184096.73, 184064.06, 184036.70, -70812.25, 0.000, 0.000, 0.000, 17:36:30.280
33, 183822.55, 183786.45, 184080.64, 184056.97, 184031.45, 183998.69, 183971.09, -71824.89, 0.000, 0.000, 0.000, 17:36:30.280
34, 183766.27, 183730.22, 184024.36, 184000.66, 183975.03, 183942.31, 183914.39, -72770.15, 0.000, 0.000, 0.000, 17:36:30.280
35, 183744.61, 183708.56, 184002.70, 183979.06, 183953.44, 183920.73, 183892.56, -73432.61, 0.000, 0.000, 0.000, 17:36:30.280
36, 183748.05, 183712.06, 184006.11, 183982.55, 183956.95, 183924.20, 183895.84, -73880.94, 0.000, 0.000, 0.000, 17:36:30.280
37, 183736.55, 183700.55, 183994.53, 183970.92, 183945.42, 183912.67, 183884.16, -74480.41, 0.000, 0.000, 0.000, 17:36:30.280
38, 183675.91, 183639.92, 183933.95, 183910.19, 183884.75, 183852.09, 183823.17, -75486.58, 0.000, 0.000, 0.000, 17:36:30.280
39, 183618.13, 183582.09, 183876.03, 183852.34, 183826.95, 183794.28, 183764.92, -76427.48, 0.044, 0.000, 0.982, 17:36:30.281
40, 183595.64, 183559.61, 183853.48, 183829.77, 183804.52, 183771.66, 183742.13, -77087.86, 0.000, 0.000, 0.000, 17:36:30.281
41, 183599.66, 183563.63, 183857.52, 183833.80, 183808.48, 183775.70, 183746.06, -77538.84, 0.000, 0.000, 0.000, 17:36:30.281
42, 183586.00, 183550.03, 183843.94, 183820.22, 183794.88, 183762.20, 183732.30, -78139.41, 0.000, 0.000, 0.000, 17:36:30.281
43, 183522.23, 183486.25, 183780.03, 183756.34, 183730.97, 183698.39, 183668.09, -79139.55, 0.000, 0.000, 0.000, 17:36:30.281
44, 183468.80, 183432.78, 183726.59, 183702.92, 183677.48, 183644.94, 183614.30, -80069.69, 0.000, 0.000, 0.000, 17:36:30.281
45, 183448.11, 183412.06, 183705.88, 183682.16, 183656.86, 183624.20, 183593.38, -80730.12, 0.000, 0.000, 0.000, 17:36:30.281
46, 183451.22, 183415.23, 183708.95, 183685.27, 183660.03, 183627.39, 183596.38, -81183.77, 0.000, 0.000, 0.000, 17:36:30.281
47, 183436.30, 183400.33, 183694.09, 183670.22, 183645.13, 183612.44, 183581.20, -81782.77, 0.000, 0.000, 0.000, 17:36:30.282
48, 183371.66, 183335.80, 183629.47, 183605.72, 183580.53, 183547.89, 183516.16, -82776.15, 0.000, 0.000, 0.000, 17:36:30.282
49, 183316.17, 183280.30, 183573.81, 183550.13, 183524.84, 183492.23, 183460.27, -83701.65, 0.038, -0.006, 0.964, 17:36:30.282
50, 183296.64, 183260.73, 183554.23, 183530.64, 183505.30, 183472.80, 183440.63, -84355.70, 0.000, 0.000, 0.000, 17:36:30.282
51, 183303.78, 183267.89, 183561.45, 183537.80, 183512.53, 183480.02, 183447.67, -84804.30, 0.000, 0.000, 0.000, 17:36:30.282
52, 183289.44, 183253.50, 183547.11, 183523.42, 183498.16, 183465.53, 183433.05, -85400.63, 0.000, 0.000, 0.000, 17:36:30.282
53, 183222.97, 183187.16, 183480.64, 183456.88, 183431.73, 183399.13, 183366.31, -86400.64, 0.000, 0.000, 0.000, 17:36:30.282
54, 183166.53, 183130.81, 183424.17, 183400.48, 183375.25, 183342.69, 183309.52, -87326.77, 0.000, 0.000, 0.000, 17:36:30.283
55, 183148.16, 183112.48, 183405.88, 183382.05, 183356.86, 183324.28, 183290.89, -87974.66, 0.000, 0.000, 0.000, 17:36:30.283
56, 183155.75, 183119.98, 183413.41, 183389.63, 183364.55, 183331.92, 183298.33, -88410.49, 0.000, 0.000, 0.000, 17:36:30.283
57, 183143.06, 183107.23, 183400.53, 183376.92, 183351.83, 183319.13, 183285.28, -88998.05, 0.000, 0.000, 0.000, 17:36:30.283
58, 183077.23, 183041.56, 183334.67, 183310.98, 183286.06, 183253.31, 183219.14, -89996.55, 0.000, 0.000, 0.000, 17:36:30.283
59, 183020.08, 182984.34, 183277.56, 183253.86, 183228.89, 183196.19, 183161.70, -90927.83, 0.040, -0.010, 0.976, 17:36:30.283
60, 182998.58, 182962.77, 183255.95, 183232.36, 183207.31, 183174.69, 183139.84, -91576.91, 0.000, 0.000, 0.000, 17:36:30.283
61, 183007.22, 182971.47, 183264.63, 183240.89, 183216.08, 183183.31, 183148.42, -92011.04, 0.000, 0.000, 0.000, 17:36:30.283
62, 182996.05, 182960.38, 183253.41, 183229.73, 183204.81, 183172.09, 183137.05, -92595.30, 0.000, 0.000, 0.000, 17:36:30.283
63, 182928.91, 182893.09, 183186.11, 183162.45, 183137.52, 183104.83, 183069.39, -93590.69, 0.000, 0.000, 0.000, 17:36:30.284
64, 182870.09, 182834.27, 183127.25, 183103.61, 183078.66, 183045.98, 183010.31, -94515.84, 0.000, 0.000, 0.000, 17:36:30.284
65, 182849.64, 182814.05, 183106.94, 183083.27, 183058.34, 183025.64, 182989.67, -95161.32, 0.000, 0.000, 0.000, 17:36:30.284
66, 182860.95, 182825.22, 183118.14, 183094.52, 183069.59, 183036.89, 183000.75, -95595.32, 0.000, 0.000, 0.000, 17:36:30.284
67, 182850.47, 182814.67, 183107.66, 183083.98, 183059.02, 183026.34, 182990.00, -96180.58, 0.000, 0.000, 0.000, 17:36:30.284
68, 182784.58, 182748.89, 183041.69, 183017.94, 182993.23, 182960.48, 182923.73, -97171.01, 0.000, 0.000, 0.000, 17:36:30.284
69, 182725.75, 182690.13, 182982.73, 182959.17, 182934.36, 182901.75, 182864.52, -98094.23, 0.042, -0.004, 0.976, 17:36:30.284
70, 182706.14, 182670.55, 182963.11, 182939.44, 182914.67, 182882.09, 182844.66, -98739.68, 0.000, 0.000, 0.000, 17:36:30.284
71, 182714.78, 182679.19, 182971.75, 182948.08, 182923.27, 182890.73, 182853.16, -99172.41, 0.000, 0.000, 0.000, 17:36:30.285
72, 182703.95, 182668.23, 182960.98, 182937.28, 182912.50, 182879.86, 182842.03, -99756.08, 0.000, 0.000, 0.000, 17:36:30.285
73, 182637.19, 182601.56, 182894.19, 182870.52, 182845.80, 182813.06, 182774.81, -100742.93, 0.000, 0.000, 0.000, 17:36:30.285
74, 182578.75, 182543.06, 182835.66, 182811.98, 182787.22, 182754.63, 182716.03, -101659.66, 0.000, 0.000, 0.000, 17:36:30.752
75, 182559.13, 182523.52, 182816.05, 182792.42, 182767.59, 182735.09, 182696.20, -102303.75, 0.000, 0.000, 0.000, 17:36:30.752
76, 182567.44, 182531.84, 182824.39, 182800.70, 182775.94, 182743.39, 182704.45, -102736.55, 0.000, 0.000, 0.000, 17:36:30.753
77, 182556.59, 182521.03, 182813.53, 182789.81, 182765.00, 182732.50, 182693.30, -103321.09, 0.000, 0.000, 0.000, 17:36:30.753
78, 182490.39, 182454.92, 182747.30, 182723.58, 182698.92, 182666.25, 182626.75, -104308.01, 0.000, 0.000, 0.000, 17:36:30.753
79, 182432.03, 182396.47, 182688.89, 182665.20, 182640.48, 182607.95, 182568.14, -105227.90, 0.042, -0.010, 0.976, 17:36:30.753
80, 182412.38, 182376.80, 182669.22, 182645.44, 182620.81, 182588.36, 182548.20, -105871.76, 0.000, 0.000, 0.000, 17:36:30.753
81, 182422.34, 182386.88, 182679.14, 182655.41, 182630.91, 182598.28, 182558.00, -106301.18, 0.000, 0.000, 0.000, 17:36:30.753
82, 182411.31, 182375.86, 182668.19, 182644.44, 182619.92, 182587.27, 182546.83, -106883.13, 0.000, 0.000, 0.000, 17:36:30.753
83, 182345.53, 182310.13, 182602.30, 182578.56, 182554.09, 182521.45, 182480.59, -107872.63, 0.000, 0.000, 0.000, 17:36:30.753
84, 182286.16, 182250.70, 182542.80, 182519.09, 182494.56, 182462.09, 182420.83, -108788.40, 0.000, 0.000, 0.000, 17:36:30.754
85, 182265.95, 182230.44, 182522.55, 182498.83, 182474.30, 182441.80, 182400.31, -109429.42, 0.000, 0.000, 0.000, 17:36:30.754
86, 182279.52, 182244.00, 182536.19, 182512.45, 182487.92, 182455.39, 182413.72, -109855.34, 0.000, 0.000, 0.000, 17:36:30.754
87, 182269.42, 182234.03, 182526.16, 182502.36, 182477.89, 182445.39, 182403.48, -110434.53, 0.000, 0.000, 0.000, 17:36:30.754
88, 182202.39, 182166.94, 182459.05, 182435.25, 182410.77, 182378.30, 182335.98, -111420.80, 0.000, 0.000, 0.000, 17:36:30.754
89, 182144.09, 182108.70, 182400.80, 182376.89, 182352.56, 182319.94, 182277.31, -112339.22, 0.046, -0.004, 0.972, 17:36:30.754
90, 182122.59, 182087.16, 182379.20, 182355.38, 182331.05, 182298.45, 182255.58, -112975.75, 0.000, 0.000, 0.000, 17:36:30.754
91, 182133.36, 182097.91, 182389.83, 182366.20, 182341.75, 182309.22, 182266.22, -113397.03, 0.000, 0.000, 0.000, 17:36:30.755
92, 182123.64, 182088.17, 182380.11, 182356.45, 182332.00, 182299.45, 182256.23, -113975.77, 0.000, 0.000, 0.000, 17:36:30.755
93, 182055.42, 182019.95, 182311.80, 182288.13, 182263.67, 182231.22, 182187.56, -114968.95, 0.000, 0.000, 0.000, 17:36:30.755
94, 181996.28, 181960.94, 182252.72, 182228.89, 182204.55, 182172.25, 182128.06, -115883.42, 0.000, 0.000, 0.000, 17:36:30.755
95, 181979.78, 181944.48, 182236.25, 182212.39, 182188.08, 182155.69, 182111.41, -116516.29, 0.000, 0.000, 0.000, 17:36:30.755
96, 181992.02, 181956.77, 182248.52, 182224.63, 182200.33, 182167.83, 182123.58, -116934.17, 0.000, 0.000, 0.000, 17:36:30.755
97, 181982.27, 181946.92, 182238.69, 182214.88, 182190.58, 182158.06, 182113.52, -117510.80, 0.000, 0.000, 0.000, 17:36:30.755
98, 181916.86, 181881.55, 182173.34, 182149.48, 182125.22, 182092.72, 182047.69, -118500.41, 0.000, 0.000, 0.000, 17:36:30.755
99, 181858.72, 181823.39, 182115.14, 182091.23, 182067.05, 182034.56, 181989.19, -119419.42, 0.044, -0.008, 0.978, 17:36:30.756
100, 181838.75, 181803.45, 182095.00, 182071.22, 182047.06, 182014.52, 181968.94, -120052.16, 0.000, 0.000, 0.000, 17:36:30.756
101, 181848.17, 181812.84, 182104.33, 182080.61, 182056.45, 182023.95, 181978.16, -120467.90, 0.000, 0.000, 0.000, 17:36:30.756
102, 181838.61, 181803.30, 182094.77, 182071.00, 182046.81, 182014.36, 181968.36, -121042.34, 0.000, 0.000, 0.000, 17:36:30.756
103, 181773.64, 181738.25, 182029.69, 182005.94, 181981.81, 181949.31, 181902.94, -122034.66, 0.000, 0.000, 0.000, 17:36:30.756
104, 181715.55, 181680.19, 181971.58, 181947.80, 181923.75, 181891.20, 181844.42, -122948.36, 0.000, 0.000, 0.000, 17:36:30.756
105, 181697.39, 181661.98, 181953.44, 181929.67, 181905.69, 181873.03, 181826.03, -123578.25, 0.000, 0.000, 0.000, 17:36:30.756
106, 181710.31, 181675.00, 181966.44, 181942.67, 181918.66, 181886.08, 181838.98, -123991.36, 0.000, 0.000, 0.000, 17:36:30.756
107, 181702.20, 181666.88, 181958.28, 181934.44, 181910.53, 181877.95, 181830.55, -124565.22, 0.000, 0.000, 0.000, 17:36:30.757
108, 181634.97, 181599.69, 181891.03, 181867.16, 181843.19, 181810.72, 181762.81, -125555.47, 0.000, 0.000, 0.000, 17:36:30.757
109, 181576.48, 181541.27, 181832.42, 181808.59, 181784.67, 181752.20, 181703.98, -126467.44, 0.112, -0.068, 0.960, 17:36:30.757
110, 181554.30, 181518.98, 181810.20, 181786.34, 181762.39, 181729.91, 181681.52, -127098.09, 0.000, 0.000, 0.000, 17:36:30.757
111, 181563.30, 181528.03, 181819.28, 181795.41, 181771.44, 181739.09, 181690.31, -127523.90, 0.000, 0.000, 0.000, 17:36:30.757
112, 181552.13, 181516.92, 181808.09, 181784.30, 181760.33, 181727.92, 181678.95, -128108.51, 0.000, 0.000, 0.000, 17:36:30.757
113, 181489.41, 181454.16, 181745.33, 181721.55, 181697.66, 181665.23, 181615.88, -129082.55, 0.000, 0.000, 0.000, 17:36:30.757
114, 181433.75, 181398.45, 181689.48, 181665.67, 181641.89, 181609.42, 181559.73, -129980.66, 0.000, 0.000, 0.000, 17:36:30.757
115, 181413.08, 181377.83, 181668.84, 181645.06, 181621.31, 181588.73, 181538.92, -130612.08, 0.000, 0.000, 0.000, 17:36:30.758
116, 181416.77, 181381.50, 181672.53, 181648.80, 181624.95, 181592.52, 181542.50, -131042.82, 0.000, 0.000, 0.000, 17:36:30.758
117, 181405.17, 181369.92, 181660.91, 181637.11, 181613.30, 181580.97, 181530.72, -131628.14, 0.000, 0.000, 0.000, 17:36:30.758
118, 181345.08, 181309.83, 181600.78, 181576.94, 181553.17, 181520.75, 181470.16, -132600.69, 0.000, 0.000, 0.000, 17:36:30.758
119, 181291.95, 181256.81, 181547.70, 181523.89, 181500.03, 181467.69, 181416.67, -133497.67, 0.052, -0.058, 0.950, 17:36:30.758
120, 181271.23, 181236.16, 181526.95, 181503.16, 181479.34, 181447.05, 181395.78, -134128.33, 0.000, 0.000, 0.000, 17:36:30.758
121, 181276.84, 181241.77, 181532.44, 181508.75, 181484.95, 181452.66, 181401.20, -134557.39, 0.000, 0.000, 0.000, 17:36:30.758
122, 181264.22, 181229.14, 181519.84, 181496.06, 181472.31, 181440.02, 181388.33, -135142.05, 0.000, 0.000, 0.000, 17:36:30.758
123, 181201.61, 181166.42, 181457.22, 181433.48, 181409.70, 181377.30, 181325.23, -136113.88, 0.000, 0.000, 0.000, 17:36:30.759
124, 181148.13, 181112.84, 181403.69, 181379.89, 181356.23, 181323.78, 181271.39, -137012.64, 0.000, 0.000, 0.000, 17:36:30.759
125, 181127.84, 181092.73, 181383.34, 181359.64, 181335.98, 181303.58, 181250.95, -137644.47, 0.000, 0.000, 0.000, 17:36:30.759
126, 181134.98, 181099.95, 181390.50, 181366.81, 181343.16, 181310.66, 181257.86, -138077.88, 0.000, 0.000, 0.000, 17:36:30.759
127, 181120.84, 181085.80, 181376.27, 181352.61, 181328.98, 181296.47, 181243.47, -138663.63, 0.000, 0.000, 0.000, 17:36:30.759
128, 181054.75, 181019.75, 181310.17, 181286.36, 181262.81, 181230.38, 181177.00, -139623.67, 0.000, 0.000, 0.000, 17:36:30.759
129, 181000.42, 180965.38, 181255.75, 181231.94, 181208.33, 181176.06, 181122.28, -140503.44, 0.000, 0.000, 0.000, 17:36:30.759
130, 180982.47, 180947.38, 181237.80, 181214.02, 181190.44, 181158.14, 181104.05, -141132.08, 0.056, -0.028, 0.962, 17:36:30.759
131, 180991.25, 180956.13, 181246.58, 181222.73, 181199.13, 181166.88, 181112.63, -141585.59, 0.000, 0.000, 0.000, 17:36:30.760
132, 180979.66, 180944.58, 181235.00, 181211.20, 181187.56, 181155.30, 181100.84, -142185.50, 0.000, 0.000, 0.000, 17:36:30.760
133, 180913.27, 180878.27, 181168.58, 181144.83, 181121.23, 181088.98, 181034.22, -143113.72, 0.000, 0.000, 0.000, 17:36:30.760
134, 180856.09, 180821.09, 181111.23, 181087.53, 181063.92, 181031.64, 180976.55, -143962.97, 0.000, 0.000, 0.000, 17:36:30.760
135, 180838.86, 180803.92, 181094.08, 181070.33, 181046.80, 181014.44, 180959.00, -144597.81, 0.000, 0.000, 0.000, 17:36:30.760
136, 180854.89, 180819.77, 181110.08, 181086.25, 181062.73, 181030.39, 180974.83, -145128.11, 0.000, 0.000, 0.000, 17:36:30.760
137, 180846.59, 180811.45, 181101.78, 181077.98, 181054.42, 181022.14, 180966.33, -145785.25, 0.000, 0.000, 0.000, 17:36:30.760
138, 180764.83, 180729.92, 181020.09, 180996.27, 180972.70, 180940.47, 180884.25, -146664.25, 0.000, 0.000, 0.000, 17:36:30.760
139, 181617.75, 181582.44, 181873.67, 181849.81, 181825.91, 181793.50, 181741.72, -137462.67, 0.000, 0.000, 0.000, 17:36:30.761
140, 186947.92, 186910.42, 187207.44, 187183.61, 187157.41, 187124.13, 187082.17, -126113.03, -0.006, -0.024, 0.966, 17:36:30.761
141, 187500.00, 187500.00, 187500.00, 187500.00, 187500.00, 187500.00, 187500.00, -183287.30, 0.000, 0.000, 0.000, 17:36:30.761
142, 187500.00, 187500.00, 187500.00, 187500.00, 187500.00, 187500.00, 187500.00, -187500.02, 0.000, 0.000, 0.000, 17:36:30.761
143, 187500.00, 187500.00, 187500.00, 187500.00, 187500.00, 187500.00, 187500.00, -187500.02, 0.000, 0.000, 0.000, 17:36:30.761
144, 187500.00, 187500.00, 187500.00, 187500.00, 187500.00, 187500.00, 187500.00, -187500.02, 0.000, 0.000, 0.000, 17:36:30.761
145, 187500.00, 187500.00, 187500.00, 187500.00, 187500.00, 187500.00, 187500.00, -187500.02, 0.000, 0.000, 0.000, 17:36:30.761
146, 187500.00, 187500.00, 187500.00, 187500.00, 187500.00, 187500.00, 187500.00, -186573.80, 0.000, 0.000, 0.000, 17:36:30.761
147, 187500.00, 187500.00, 187500.00, 187500.00, 187500.00, 187500.00, 187500.00, -165888.42, 0.000, 0.000, 0.000, 17:36:30.762
148, 187500.00, 187500.00, 187500.00, 187500.00, 187500.00, 187500.00, 187500.00, -145715.05, 0.000, 0.000, 0.000, 17:36:30.762
149, 187500.00, 187500.00, 187500.00, 187500.00, 187500.00, 187500.00, 187500.00, -129724.24, 0.000, 0.000, 0.000, 17:36:30.762
150, 187500.00, 187500.00, 187500.00, 187500.00, 187500.00, 187500.00, 187500.00, -116211.01, 0.020, -0.018, 0.976, 17:36:30.762
151, 187500.00, 187500.00, 187500.00, 187500.00, 187500.00, 187500.00, 187500.00, -104853.68, 0.000, 0.000, 0.000, 17:36:30.762
152, 187500.00, 187500.00, 187500.00, 187500.00, 187500.00, 187500.00, 187500.00, -95823.40, 0.000, 0.000, 0.000, 17:36:30.762
153, 187500.00, 187500.00, 187500.00, 187500.00, 187500.00, 187500.00, 187500.00, -89139.18, 0.000, 0.000, 0.000, 17:36:30.762
154, 187500.00, 187500.00, 187500.00, 187500.00, 187500.00, 187500.00, 187500.00, -82875.33, 0.000, 0.000, 0.000, 17:36:30.763
155, 187500.00, 187500.00, 187500.00, 187500.00, 187500.00, 187500.00, 187500.00, -76882.60, 0.000, 0.000, 0.000, 17:36:30.763
156, 187500.00, 187500.00, 187500.00, 187500.00, 187500.00, 187500.00, 187500.00, -71431.19, 0.000, 0.000, 0.000, 17:36:30.763
157, 187500.00, 187500.00, 187500.00, 187500.00, 187500.00, 187500.00, 187500.00, -66675.09, 0.000, 0.000, 0.000, 17:36:30.763
158, 187500.00, 187500.00, 187500.00, 187500.00, 187500.00, 187500.00, 187500.00, -62807.48, 0.000, 0.000, 0.000, 17:36:30.763
159, 187500.00, 187500.00, 187500.00, 187500.00, 187500.00, 187500.00, 187500.00, -59336.55, 0.000, 0.000, 0.000, 17:36:30.763
160, 187500.00, 187500.00, 187500.00, 187500.00, 187500.00, 187500.00, 187500.00, -56685.92, 0.028, -0.014, 0.974, 17:36:30.764
161, 187500.00, 187500.00, 187500.00, 187500.00, 187500.00, 187500.00, 187500.00, -55445.09, 0.000, 0.000, 0.000, 17:36:30.764
162, 187500.00, 187500.00, 187500.00, 187500.00, 187500.00, 187500.00, 187500.00, -53512.67, 0.000, 0.000, 0.000, 17:36:30.764
163, 187500.00, 187500.00, 187500.00, 187500.00, 187500.00, 187500.00, 172752.80, -49930.51, 0.000, 0.000, 0.000, 17:36:30.764
164, 187500.00, 187500.00, 187500.00, 187500.00, 187500.00, 187500.00, 150473.30, -46075.44, 0.000, 0.000, 0.000, 17:36:30.764
165, 187500.00, 187500.00, 187500.00, 187500.00, 187500.00, 187500.00, 124467.49, -42795.63, 0.000, 0.000, 0.000, 17:36:30.764
166, 187500.00, 187500.00, 187500.00, 187500.00, 187500.00, 187500.00, 98082.18, -42306.80, 0.000, 0.000, 0.000, 17:36:30.764
167, 187500.00, 187500.00, 187500.00, 187500.00, 187500.00, 187500.00, 77200.09, -42488.68, 0.000, 0.000, 0.000, 17:36:30.765
168, 187500.00, 187500.00, 187500.00, 187500.00, 187500.00, 187500.00, 60168.97, -42984.53, 0.000, 0.000, 0.000, 17:36:30.765
169, 187500.00, 187500.00, 187500.00, 187500.00, 187500.00, 187500.00, 44648.61, -43452.17, 0.000, 0.000, 0.000, 17:36:30.765
170, 187500.00, 187500.00, 187500.00, 187500.00, 187500.00, 187500.00, 33412.23, -45935.00, 0.044, -0.006, 0.978, 17:36:30.765
171, 187500.00, 187500.00, 187500.00, 187500.00, 187500.00, 187500.00, 26323.16, -45997.18, 0.000, 0.000, 0.000, 17:36:30.765
172, 187500.00, 187500.00, 187500.00, 187500.00, 187500.00, 187500.00, 17838.88, -44316.63, 0.000, 0.000, 0.000, 17:36:30.765
173, 187500.00, 187500.00, 187500.00, 187500.00, 187500.00, 187500.00, 12865.06, -44504.20, 0.000, 0.000, 0.000, 17:36:30.765
174, 187500.00, 187500.00, 187500.00, 187500.00, 187500.00, 187500.00, 12347.71, -43232.12, 0.000, 0.000, 0.000, 17:36:30.766
175, 187500.00, 187500.00, 187500.00, 187500.00, 187500.00, 187500.00, 10582.05, -42584.70, 0.000, 0.000, 0.000, 17:36:30.766
176, 187500.00, 187500.00, 187500.00, 187500.00, 187500.00, 187500.00, 7246.03, -39832.02, 0.000, 0.000, 0.000, 17:36:30.766
177, 187500.00, 187500.00, 187500.00, 187500.00, 187500.00, 187500.00, 4247.14, -37879.34, 0.000, 0.000, 0.000, 17:36:30.766
178, 187500.00, 187500.00, 187500.00, 187500.00, 187500.00, 187500.00, 3687.23, -36239.93, 0.000, 0.000, 0.000, 17:36:30.766
179, 187500.00, 187500.00, 187500.00, 187500.00, 187500.00, 187500.00, 4637.52, -32755.72, 0.000, 0.000, 0.000, 17:36:30.766
180, 187500.00, 187500.00, 187500.00, 187500.00, 187500.00, 187500.00, 3158.50, -29931.29, 0.058, -0.004, 0.972, 17:36:30.766
181, 187500.00, 187500.00, 187500.00, 187500.00, 187500.00, 187500.00, -4534.65, -31812.43, 0.000, 0.000, 0.000, 17:36:30.766
182, 187500.00, 187500.00, 187500.00, 187500.00, 187500.00, 187500.00, -5131.71, -31973.14, 0.000, 0.000, 0.000, 17:36:30.767
183, 187500.00, 187500.00, 187500.00, 187500.00, 187500.00, 187500.00, 35875.02, -13124.18, 0.000, 0.000, 0.000, 17:36:30.767
184, 187500.00, 187500.00, 187500.00, 187500.00, 187500.00, 187500.00, 55228.01, 2854.94, 0.000, 0.000, 0.000, 17:36:30.767
185, 187500.00, 187500.00, 187500.00, 187500.00, 187500.00, 181183.25, 30083.64, 3287.09, 0.000, 0.000, 0.000, 17:36:30.767
186, 187500.00, 187500.00, 187500.00, 187500.00, 187500.00, 121611.12, -13305.79, 7160.90, 0.000, 0.000, 0.000, 17:36:30.767
187, 187500.00, 187500.00, 187500.00, 187500.00, 187500.00, 79697.11, -19437.61, 2787.78, 0.000, 0.000, 0.000, 17:36:30.767
188, 187500.00, 187500.00, 187500.00, 187500.00, 187500.00, 89881.05, 26177.89, -59447.97, 0.000, 0.000, 0.000, 17:36:30.767
