%OpenBCI Raw EEG Data
%
%Sample Rate = 250.0 Hz
%First Column = SampleIndex
%Last Column = Timestamp 
%Other Columns = EEG data in microvolts followed by Accel Data (in G) interleaved with Aux Data
0, 0.00, 0.00, 0.00, 0.00, 0.00, 0.00, 0.00, 0.00, 0.000, 0.000, 0.000, 17:04:04.844
1, -6648.10, -6734.89, -6770.48, -6707.29, -39457.38, -91120.84, -145371.77, -140514.27, 0.054, -0.002, 0.982, 17:04:05.325
2, -6643.18, -6730.49, -6766.45, -6703.24, -39453.73, -91117.02, -145367.92, -140510.50, 0.000, 0.000, 0.000, 17:04:05.325
3, -6645.71, -6732.48, -6768.00, -6704.61, -39455.01, -91118.05, -145368.80, -140511.13, 0.000, 0.000, 0.000, 17:04:05.326
4, -6647.99, -6734.16, -6769.05, -6705.68, -39455.90, -91118.67, -145369.22, -140511.47, 0.000, 0.000, 0.000, 17:04:05.326
5, -6647.74, -6733.93, -6768.89, -6705.57, -39455.90, -91118.54, -145369.06, -140511.31, 0.000, 0.000, 0.000, 17:04:05.326
6, -6645.08, -6731.97, -6767.53, -6704.20, -39455.12, -91117.45, -145368.23, -140510.59, 0.000, 0.000, 0.000, 17:04:05.326
7, -6642.25, -6729.57, -6765.56, -6702.10, -39453.60, -91115.56, -145366.38, -140508.78, 0.000, 0.000, 0.000, 17:04:05.327
8, -6644.37, -6731.07, -6766.63, -6703.04, -39454.38, -91116.26, -145366.67, -140508.92, 0.052, -0.012, 0.976, 17:04:05.327
9, -6647.65, -6733.82, -6768.69, -6705.21, -39456.41, -91118.00, -145368.20, -140510.30, 0.000, 0.000, 0.000, 17:04:05.327
10, -6645.89, -6731.99, -6766.99, -6703.56, -39454.89, -91116.30, -145366.48, -140508.58, 0.000, 0.000, 0.000, 17:04:05.327
11, -6641.82, -6728.79, -6764.33, -6700.92, -39452.75, -91113.98, -145364.31, -140506.56, 0.000, 0.000, 0.000, 17:04:05.328
12, -6640.41, -6727.94, -6763.73, -6700.38, -39452.62, -91113.59, -145364.00, -140506.33, 0.000, 0.000, 0.000, 17:04:05.328
13, -6644.91, -6731.76, -6767.10, -6703.60, -39455.86, -91116.57, -145366.63, -140508.89, 0.000, 0.000, 0.000, 17:04:05.328
14, -6646.04, -6732.32, -6766.99, -6703.44, -39455.61, -91116.03, -145365.92, -140507.95, 0.000, 0.000, 0.000, 17:04:05.328
15, -6645.35, -6731.63, -6766.36, -6702.86, -39455.10, -91115.50, -145365.34, -140507.33, 0.000, 0.000, 0.000, 17:04:05.329
16, -6641.02, -6728.03, -6763.35, -6700.02, -39452.66, -91112.88, -145362.94, -140505.20, 0.000, 0.000, 0.000, 17:04:05.329
17, -6639.21, -6726.62, -6762.41, -6699.13, -39452.14, -91112.08, -145362.17, -140504.56, 0.000, 0.000, 0.000, 17:04:05.329
18, -6642.20, -6729.08, -6764.38, -6700.96, -39453.93, -91113.55, -145363.42, -140505.55, 0.050, -0.008, 0.978, 17:04:05.329
19, -6646.11, -6732.37, -6767.15, -6703.60, -39456.39, -91115.92, -145365.50, -140507.39, 0.000, 0.000, 0.000, 17:04:05.330
20, -6643.88, -6730.18, -6764.96, -6701.43, -39454.49, -91113.71, -145363.36, -140505.39, 0.000, 0.000, 0.000, 17:04:05.330
21, -6639.34, -6726.29, -6761.72, -6698.30, -39451.79, -91110.78, -145360.59, -140502.81, 0.000, 0.000, 0.000, 17:04:05.330
22, -6637.42, -6724.79, -6760.64, -6697.23, -39451.12, -91109.95, -145359.80, -140501.97, 0.000, 0.000, 0.000, 17:04:05.330
23, -6641.28, -6728.12, -6763.46, -6699.89, -39453.73, -91112.28, -145361.91, -140503.84, 0.000, 0.000, 0.000, 17:04:05.330
24, -6642.63, -6728.93, -6763.68, -6700.11, -39453.78, -91112.21, -145361.48, -140503.31, 0.000, 0.000, 0.000, 17:04:05.331
25, -6640.59, -6726.98, -6761.76, -6698.35, -39452.06, -91110.40, -145359.64, -140501.45, 0.000, 0.000, 0.000, 17:04:05.331
26, -6636.72, -6723.74, -6759.17, -6695.93, -39450.13, -91108.21, -145357.66, -140499.63, 0.000, 0.000, 0.000, 17:04:05.331
27, -6634.78, -6722.20, -6758.07, -6694.68, -39449.35, -91107.09, -145356.61, -140498.75, 0.000, 0.000, 0.000, 17:04:05.331
28, -6637.17, -6723.94, -6759.19, -6695.78, -39450.31, -91107.83, -145357.08, -140498.95, 0.050, -0.002, 0.976, 17:04:05.332
29, -6640.88, -6726.96, -6761.67, -6698.12, -39452.59, -91110.06, -145359.00, -140500.72, 0.000, 0.000, 0.000, 17:04:05.332
30, -6640.05, -6726.11, -6761.00, -6697.41, -39452.14, -91109.35, -145358.16, -140500.06, 0.000, 0.000, 0.000, 17:04:05.332
31, -6633.51, -6720.41, -6755.86, -6692.47, -39447.68, -91104.57, -145353.59, -140495.75, 0.000, 0.000, 0.000, 17:04:05.332
32, -6631.43, -6718.69, -6754.52, -6691.22, -39446.78, -91103.30, -145352.56, -140494.75, 0.000, 0.000, 0.000, 17:04:05.333
33, -6637.66, -6724.39, -6759.59, -6696.11, -39451.66, -91108.01, -145357.05, -140498.92, 0.000, 0.000, 0.000, 17:04:05.333
34, -6641.44, -6727.45, -6762.21, -6698.68, -39454.07, -91110.20, -145358.95, -140500.69, 0.000, 0.000, 0.000, 17:04:05.333
35, -6641.66, -6727.81, -6762.56, -6699.15, -39454.65, -91110.67, -145359.33, -140501.05, 0.000, 0.000, 0.000, 17:04:05.333
36, -6637.02, -6724.16, -6759.57, -6696.18, -39452.13, -91107.96, -145356.88, -140498.67, 0.000, 0.000, 0.000, 17:04:05.333
37, -6634.42, -6721.88, -6757.76, -6694.19, -39450.70, -91106.06, -145355.16, -140497.05, 0.000, 0.000, 0.000, 17:04:05.334
38, -6639.16, -6725.98, -6761.36, -6697.72, -39454.05, -91109.35, -145358.02, -140499.75, 0.052, -0.004, 0.980, 17:04:05.334
39, -6641.42, -6727.61, -6762.25, -6698.64, -39454.85, -91110.02, -145358.47, -140500.13, 0.000, 0.000, 0.000, 17:04:05.334
40, -6639.29, -6725.55, -6760.28, -6696.63, -39453.18, -91108.10, -145356.50, -140498.14, 0.000, 0.000, 0.000, 17:04:05.334
41, -6635.70, -6722.80, -6758.25, -6694.55, -39451.52, -91106.27, -145354.89, -140496.75, 0.000, 0.000, 0.000, 17:04:05.335
42, -6635.05, -6722.53, -6758.41, -6694.73, -39451.99, -91106.49, -145355.16, -140497.08, 0.000, 0.000, 0.000, 17:04:05.335
43, -6636.97, -6723.76, -6759.12, -6695.33, -39452.50, -91106.78, -145355.20, -140496.83, 0.000, 0.000, 0.000, 17:04:05.335
44, -6640.66, -6726.76, -6761.54, -6697.86, -39454.89, -91108.91, -145357.09, -140498.61, 0.000, 0.000, 0.000, 17:04:05.335
45, -6641.40, -6727.67, -6762.48, -6698.86, -39456.13, -91109.93, -145358.11, -140499.64, 0.000, 0.000, 0.000, 17:04:05.335
46, -6637.17, -6724.16, -6759.66, -6696.05, -39453.75, -91107.32, -145355.80, -140497.56, 0.000, 0.000, 0.000, 17:04:05.336
47, -6635.36, -6722.67, -6758.45, -6694.97, -39453.04, -91106.31, -145354.78, -140496.56, 0.000, 0.000, 0.000, 17:04:05.336
48, -6639.12, -6725.84, -6760.98, -6697.43, -39455.32, -91108.59, -145356.66, -140498.23, 0.050, -0.002, 0.982, 17:04:05.336
49, -6642.69, -6728.93, -6763.50, -6699.94, -39457.78, -91110.73, -145358.64, -140500.09, 0.000, 0.000, 0.000, 17:04:05.336
50, -6641.60, -6727.94, -6762.68, -6699.09, -39457.13, -91109.91, -145357.80, -140499.31, 0.000, 0.000, 0.000, 17:04:05.336
51, -6637.17, -6724.34, -6759.68, -6696.18, -39454.71, -91107.27, -145355.42, -140497.00, 0.000, 0.000, 0.000, 17:04:05.336
52, -6635.03, -6722.58, -6758.30, -6694.62, -39453.53, -91105.87, -145354.16, -140495.66, 0.000, 0.000, 0.000, 17:04:05.337
53, -6638.60, -6725.42, -6760.60, -6696.85, -39455.61, -91107.80, -145355.69, -140497.05, 0.000, 0.000, 0.000, 17:04:05.337
54, -6640.95, -6727.14, -6761.65, -6698.15, -39456.73, -91108.70, -145356.30, -140497.52, 0.000, 0.000, 0.000, 17:04:05.337
55, -6639.56, -6725.95, -6760.51, -6697.16, -39455.92, -91107.56, -145355.25, -140496.48, 0.000, 0.000, 0.000, 17:04:05.337
56, -6635.36, -6722.42, -6757.80, -6694.39, -39453.71, -91105.13, -145352.98, -140494.44, 0.000, 0.000, 0.000, 17:04:05.337
57, -6634.56, -6721.93, -6757.65, -6694.10, -39453.78, -91105.13, -145352.97, -140494.44, 0.000, 0.000, 0.000, 17:04:05.338
58, -6638.83, -6725.57, -6760.62, -6697.01, -39456.66, -91107.67, -145355.27, -140496.52, 0.048, -0.002, 0.980, 17:04:05.338
59, -6642.09, -6728.12, -6762.68, -6699.13, -39458.61, -91109.30, -145356.77, -140497.81, 0.000, 0.000, 0.000, 17:04:05.338
60, -6641.06, -6727.43, -6762.01, -6698.50, -39458.16, -91108.75, -145356.16, -140497.30, 0.000, 0.000, 0.000, 17:04:05.338
61, -6637.26, -6724.34, -6759.66, -6696.20, -39456.39, -91106.73, -145354.27, -140495.66, 0.000, 0.000, 0.000, 17:04:05.339
62, -6633.82, -6721.28, -6756.89, -6693.48, -39453.93, -91103.90, -145351.56, -140493.03, 0.000, 0.000, 0.000, 17:04:05.339
63, -6636.59, -6723.31, -6758.25, -6694.73, -39455.05, -91104.91, -145352.23, -140493.41, 0.000, 0.000, 0.000, 17:04:05.339
64, -6638.20, -6724.21, -6758.79, -6695.24, -39455.34, -91105.08, -145352.20, -140493.27, 0.000, 0.000, 0.000, 17:04:05.339
65, -6638.04, -6724.19, -6758.88, -6695.38, -39455.72, -91105.20, -145352.42, -140493.58, 0.000, 0.000, 0.000, 17:04:05.339
66, -6631.47, -6718.42, -6753.78, -6690.48, -39451.32, -91100.55, -145347.95, -140489.34, 0.000, 0.000, 0.000, 17:04:05.340
67, -6629.80, -6717.08, -6752.82, -6689.41, -39450.70, -91099.70, -145347.06, -140488.58, 0.000, 0.000, 0.000, 17:04:05.340
68, -6634.00, -6720.52, -6755.57, -6692.02, -39453.24, -91101.93, -145349.08, -140490.23, 0.000, 0.000, 0.000, 17:04:05.340
69, -6637.82, -6723.72, -6758.14, -6694.66, -39455.72, -91104.27, -145351.11, -140492.13, 0.040, -0.004, 0.984, 17:04:05.341
70, -6637.80, -6723.85, -6758.47, -6695.06, -39456.32, -91104.70, -145351.52, -140492.52, 0.000, 0.000, 0.000, 17:04:05.341
71, -6632.70, -6719.63, -6754.94, -6691.64, -39453.29, -91101.48, -145348.52, -140489.73, 0.000, 0.000, 0.000, 17:04:05.341
72, -6631.72, -6718.98, -6754.63, -6691.31, -39453.18, -91101.10, -145348.19, -140489.56, 0.000, 0.000, 0.000, 17:04:05.341
73, -6636.93, -6723.45, -6758.47, -6695.11, -39456.86, -91104.55, -145351.41, -140492.36, 0.000, 0.000, 0.000, 17:04:05.341
74, -6638.49, -6724.23, -6758.79, -6695.44, -39457.06, -91104.70, -145351.20, -140492.06, 0.000, 0.000, 0.000, 17:04:05.342
75, -6636.59, -6722.56, -6757.25, -6693.90, -39455.79, -91103.16, -145349.66, -140490.80, 0.000, 0.000, 0.000, 17:04:05.342
76, -6631.74, -6718.58, -6753.91, -6690.64, -39453.09, -91100.14, -145346.95, -140488.17, 0.000, 0.000, 0.000, 17:04:05.342
77, -6630.06, -6717.19, -6752.84, -6689.43, -39452.23, -91099.09, -145345.98, -140487.08, 0.000, 0.000, 0.000, 17:04:05.342
78, -6636.08, -6722.44, -6757.45, -6693.97, -39456.62, -91103.30, -145349.81, -140490.70, 0.000, 0.000, 0.000, 17:04:05.343
79, -6640.39, -6726.18, -6760.60, -6697.10, -39459.72, -91106.24, -145352.42, -140493.27, 0.046, -0.006, 0.978, 17:04:05.343
80, -6639.99, -6725.93, -6760.55, -6697.14, -39459.90, -91106.27, -145352.42, -140493.41, 0.000, 0.000, 0.000, 17:04:05.343
81, -6636.88, -6723.74, -6759.03, -6695.71, -39458.92, -91105.17, -145351.53, -140492.69, 0.000, 0.000, 0.000, 17:04:05.343
82, -6635.47, -6722.69, -6758.21, -6694.84, -39458.45, -91104.27, -145350.75, -140491.86, 0.000, 0.000, 0.000, 17:04:05.343
83, -6637.37, -6723.83, -6758.68, -6695.26, -39458.74, -91104.27, -145350.44, -140491.27, 0.000, 0.000, 0.000, 17:04:05.343
84, -6637.33, -6723.11, -6757.54, -6694.03, -39457.36, -91102.84, -145348.73, -140489.41, 0.000, 0.000, 0.000, 17:04:05.344
85, -6636.70, -6722.64, -6757.20, -6693.65, -39457.22, -91102.53, -145348.52, -140489.30, 0.000, 0.000, 0.000, 17:04:05.344
86, -6634.24, -6721.06, -6756.28, -6692.87, -39456.89, -91102.00, -145348.11, -140489.19, 0.000, 0.000, 0.000, 17:04:05.344
87, -6633.98, -6721.12, -6756.57, -6693.19, -39457.55, -91102.35, -145348.47, -140489.47, 0.000, 0.000, 0.000, 17:04:05.344
88, -6638.33, -6724.86, -6759.59, -6696.18, -39460.30, -91104.95, -145350.73, -140491.45, 0.000, 0.000, 0.000, 17:04:05.344
89, -6641.53, -6727.41, -6761.76, -6698.37, -39462.27, -91106.76, -145352.20, -140492.98, 0.046, -0.004, 0.976, 17:04:05.345
90, -6640.59, -6726.71, -6761.25, -6697.95, -39462.05, -91106.18, -145351.84, -140492.67, 0.000, 0.000, 0.000, 17:04:05.345
91, -6635.70, -6722.67, -6757.87, -6694.59, -39459.19, -91103.13, -145349.09, -140490.08, 0.000, 0.000, 0.000, 17:04:05.345
92, -6634.78, -6721.97, -6757.54, -6694.17, -39459.07, -91102.71, -145348.67, -140489.67, 0.000, 0.000, 0.000, 17:04:05.345
93, -6637.53, -6724.01, -6759.01, -6695.46, -39460.26, -91103.77, -145349.33, -140490.05, 0.000, 0.000, 0.000, 17:04:05.345
94, -6639.00, -6724.97, -6759.30, -6695.89, -39460.48, -91103.92, -145349.20, -140489.83, 0.000, 0.000, 0.000, 17:04:05.346
95, -6635.16, -6721.33, -6755.81, -6692.51, -39457.36, -91100.55, -145345.88, -140486.61, 0.000, 0.000, 0.000, 17:04:05.346
96, -6629.13, -6716.12, -6751.32, -6688.02, -39453.38, -91096.27, -145341.91, -140482.86, 0.000, 0.000, 0.000, 17:04:05.346
97, -6628.10, -6715.34, -6750.83, -6687.42, -39453.13, -91095.70, -145341.34, -140482.34, 0.000, 0.000, 0.000, 17:04:05.346
98, -6633.80, -6720.28, -6755.19, -6691.55, -39457.13, -91099.52, -145344.83, -140485.66, 0.000, 0.000, 0.000, 17:04:05.346
99, -6639.34, -6725.28, -6759.75, -6696.05, -39461.54, -91103.78, -145348.92, -140489.52, 0.042, -0.002, 0.974, 17:04:05.346
100, -6638.74, -6724.97, -6759.66, -6696.07, -39461.76, -91103.78, -145348.86, -140489.61, 0.000, 0.000, 0.000, 17:04:05.347
101, -6630.33, -6717.39, -6752.77, -6689.25, -39455.48, -91097.26, -145342.53, -140483.56, 0.000, 0.000, 0.000, 17:04:05.347
102, -6627.58, -6714.87, -6750.43, -6686.88, -39453.38, -91094.91, -145340.22, -140481.14, 0.000, 0.000, 0.000, 17:04:05.347
103, -6633.71, -6720.25, -6755.05, -6691.53, -39457.82, -91099.09, -145344.16, -140484.83, 0.000, 0.000, 0.000, 17:04:05.347
104, -6635.09, -6721.06, -6755.46, -6691.80, -39458.14, -91099.27, -145344.09, -140484.64, 0.000, 0.000, 0.000, 17:04:05.347
105, -6634.56, -6720.88, -6755.43, -6691.87, -39458.36, -91099.38, -145344.16, -140484.83, 0.000, 0.000, 0.000, 17:04:05.348
106, -6630.47, -6717.62, -6752.82, -6689.43, -39456.41, -91097.13, -145342.14, -140483.02, 0.000, 0.000, 0.000, 17:04:05.348
107, -6628.90, -6716.27, -6751.70, -6688.33, -39455.52, -91095.85, -145340.84, -140481.83, 0.000, 0.000, 0.000, 17:04:05.348
108, -6631.67, -6718.31, -6753.11, -6689.63, -39456.57, -91096.70, -145341.45, -140482.03, 0.000, 0.000, 0.000, 17:04:05.349
109, -6633.73, -6719.85, -6754.16, -6690.73, -39457.51, -91097.48, -145342.08, -140482.52, 0.050, -0.002, 0.978, 17:04:05.349
110, -6632.97, -6719.27, -6753.80, -6690.50, -39457.51, -91097.37, -145342.03, -140482.41, 0.000, 0.000, 0.000, 17:04:05.349
111, -6631.29, -6718.40, -6753.67, -6690.39, -39457.96, -91097.52, -145342.42, -140483.13, 0.000, 0.000, 0.000, 17:04:05.350
112, -6629.53, -6716.90, -6752.44, -6689.05, -39456.89, -91096.21, -145341.00, -140481.77, 0.000, 0.000, 0.000, 17:04:05.350
113, -6631.81, -6718.40, -6753.29, -6689.81, -39457.38, -91096.54, -145340.97, -140481.45, 0.000, 0.000, 0.000, 17:04:05.350
114, -6635.18, -6721.30, -6755.73, -6692.31, -39459.81, -91098.69, -145342.92, -140483.34, 0.000, 0.000, 0.000, 17:04:05.350
115, -6635.36, -6721.71, -6756.31, -6693.10, -39460.75, -91099.49, -145343.70, -140484.22, 0.000, 0.000, 0.000, 17:04:05.350
116, -6629.24, -6716.39, -6751.61, -6688.47, -39456.68, -91095.11, -145339.78, -140480.28, 0.000, 0.000, 0.000, 17:04:05.351
117, -6629.24, -6716.61, -6752.10, -6688.74, -39457.20, -91095.41, -145340.02, -140480.48, 0.000, 0.000, 0.000, 17:04:05.351
118, -6633.60, -6720.19, -6755.05, -6691.60, -39459.86, -91097.93, -145342.19, -140482.50, 0.000, 0.000, 0.000, 17:04:05.351
119, -6634.60, -6720.66, -6755.05, -6691.62, -39459.81, -91097.68, -145341.67, -140482.03, 0.054, 0.002, 0.978, 17:04:05.351
120, -6631.96, -6718.33, -6752.86, -6689.50, -39458.00, -91095.72, -145339.67, -140480.06, 0.000, 0.000, 0.000, 17:04:05.351
121, -6629.91, -6717.15, -6752.46, -6689.18, -39458.11, -91095.52, -145339.73, -140480.23, 0.000, 0.000, 0.000, 17:04:05.807
122, -6630.80, -6718.13, -6753.60, -6690.37, -39459.52, -91096.63, -145340.81, -140481.38, 0.000, 0.000, 0.000, 17:04:05.807
123, -6635.88, -6722.49, -6757.20, -6693.92, -39462.88, -91099.78, -145343.70, -140484.00, 0.000, 0.000, 0.000, 17:04:05.807
124, -6635.65, -6721.77, -6756.08, -6692.92, -39461.69, -91098.55, -145342.22, -140482.41, 0.000, 0.000, 0.000, 17:04:05.808
125, -6631.90, -6718.40, -6752.82, -6689.70, -39458.79, -91095.45, -145339.17, -140479.53, 0.000, 0.000, 0.000, 17:04:05.808
126, -6627.00, -6714.26, -6749.42, -6686.39, -39455.97, -91092.36, -145336.31, -140476.81, 0.000, 0.000, 0.000, 17:04:05.808
127, -6625.53, -6712.92, -6748.37, -6685.23, -39455.01, -91091.02, -145335.00, -140475.52, 0.000, 0.000, 0.000, 17:04:05.808
128, -6631.40, -6718.06, -6752.77, -6689.59, -39459.12, -91095.05, -145338.59, -140478.94, 0.000, 0.000, 0.000, 17:04:05.808
129, -6636.23, -6722.53, -6756.69, -6693.56, -39463.01, -91098.76, -145342.19, -140482.34, 0.052, 0.000, 0.982, 17:04:05.809
130, -6632.57, -6719.22, -6753.62, -6690.55, -39460.33, -91095.85, -145339.39, -140479.53, 0.000, 0.000, 0.000, 17:04:05.809
131, -6628.43, -6715.89, -6751.03, -6688.04, -39458.41, -91093.59, -145337.39, -140477.78, 0.000, 0.000, 0.000, 17:04:05.809
132, -6628.50, -6716.07, -6751.37, -6688.27, -39458.85, -91093.73, -145337.50, -140477.95, 0.000, 0.000, 0.000, 17:04:05.809
133, -6631.43, -6718.15, -6752.84, -6689.70, -39459.99, -91094.69, -145338.17, -140478.39, 0.000, 0.000, 0.000, 17:04:05.810
134, -6635.43, -6721.71, -6755.95, -6692.85, -39463.03, -91097.64, -145340.81, -140480.95, 0.000, 0.000, 0.000, 17:04:05.810
135, -6632.57, -6719.16, -6753.67, -6690.64, -39461.15, -91095.54, -145338.70, -140478.94, 0.000, 0.000, 0.000, 17:04:05.810
136, -6627.74, -6715.11, -6750.32, -6687.46, -39458.41, -91092.56, -145335.98, -140476.42, 0.000, 0.000, 0.000, 17:04:05.810
137, -6626.91, -6714.37, -6749.69, -6686.66, -39457.85, -91091.83, -145335.13, -140475.56, 0.000, 0.000, 0.000, 17:04:05.810
138, -6630.33, -6716.92, -6751.59, -6688.38, -39459.48, -91093.16, -145336.16, -140476.28, 0.000, 0.000, 0.000, 17:04:05.811
139, -6633.37, -6719.58, -6753.89, -6690.66, -39461.64, -91095.13, -145338.03, -140478.03, 0.050, -0.002, 0.984, 17:04:05.811
140, -6632.63, -6719.20, -6753.71, -6690.55, -39461.87, -91095.23, -145338.13, -140478.23, 0.000, 0.000, 0.000, 17:04:05.811
141, -6627.65, -6714.98, -6750.27, -6687.22, -39459.01, -91092.09, -145335.28, -140475.55, 0.000, 0.000, 0.000, 17:04:05.811
142, -6627.09, -6714.49, -6749.85, -6686.68, -39458.67, -91091.49, -145334.66, -140475.03, 0.000, 0.000, 0.000, 17:04:05.812
143, -6631.65, -6718.17, -6752.84, -6689.65, -39461.36, -91094.06, -145336.78, -140476.86, 0.000, 0.000, 0.000, 17:04:05.812
144, -6633.60, -6719.81, -6754.12, -6690.99, -39462.59, -91095.25, -145337.72, -140477.56, 0.000, 0.000, 0.000, 17:04:05.812
145, -6629.77, -6716.32, -6750.88, -6687.82, -39459.77, -91092.14, -145334.66, -140474.63, 0.000, 0.000, 0.000, 17:04:05.812
146, -6624.74, -6712.03, -6747.30, -6684.33, -39456.84, -91088.81, -145331.69, -140471.86, 0.000, 0.000, 0.000, 17:04:05.812
147, -6623.13, -6710.55, -6745.94, -6682.84, -39455.54, -91087.27, -145330.19, -140470.22, 0.000, 0.000, 0.000, 17:04:05.812
148, -6628.01, -6714.71, -6749.38, -6686.17, -39458.58, -91090.17, -145332.77, -140472.64, 0.000, 0.000, 0.000, 17:04:05.813
149, -6631.49, -6717.70, -6751.95, -6688.78, -39461.13, -91092.61, -145334.92, -140474.73, 0.052, 0.000, 0.980, 17:04:05.813
150, -6629.13, -6715.72, -6750.27, -6687.17, -39459.81, -91091.11, -145333.45, -140473.36, 0.000, 0.000, 0.000, 17:04:05.813
151, -6625.84, -6713.32, -6748.57, -6685.56, -39458.74, -91089.77, -145332.41, -140472.42, 0.000, 0.000, 0.000, 17:04:05.813
152, -6623.36, -6710.84, -6746.20, -6683.08, -39456.44, -91087.20, -145329.88, -140469.84, 0.000, 0.000, 0.000, 17:04:05.813
153, -6625.41, -6712.03, -6746.69, -6683.53, -39456.62, -91087.13, -145329.45, -140469.36, 0.000, 0.000, 0.000, 17:04:05.813
154, -6626.87, -6713.08, -6747.41, -6684.20, -39457.20, -91087.58, -145329.72, -140469.53, 0.000, 0.000, 0.000, 17:04:05.814
155, -6626.73, -6713.41, -6748.06, -6684.98, -39458.23, -91088.41, -145330.55, -140470.41, 0.000, 0.000, 0.000, 17:04:05.814
156, -6622.51, -6710.02, -6745.47, -6682.30, -39456.13, -91086.06, -145328.41, -140468.42, 0.000, 0.000, 0.000, 17:04:05.814
157, -6622.08, -6709.68, -6745.13, -6681.88, -39455.95, -91085.70, -145327.94, -140467.95, 0.000, 0.000, 0.000, 17:04:05.814
158, -6626.82, -6713.55, -6748.26, -6684.94, -39458.79, -91088.27, -145330.23, -140469.94, 0.000, 0.000, 0.000, 17:04:05.814
159, -6632.37, -6718.58, -6752.95, -6689.68, -39463.43, -91092.66, -145334.50, -140474.03, 0.000, 0.000, 0.000, 17:04:05.815
160, -6631.43, -6717.91, -6752.60, -6689.45, -39463.43, -91092.56, -145334.38, -140474.09, 0.040, -0.004, 0.984, 17:04:05.815
161, -6625.17, -6712.47, -6747.86, -6684.94, -39459.39, -91088.27, -145330.25, -140470.22, 0.000, 0.000, 0.000, 17:04:05.815
162, -6624.05, -6711.47, -6746.90, -6683.84, -39458.58, -91087.18, -145329.16, -140468.97, 0.000, 0.000, 0.000, 17:04:05.815
163, -6629.93, -6716.59, -6751.23, -6688.04, -39462.54, -91091.02, -145332.56, -140472.23, 0.000, 0.000, 0.000, 17:04:05.815
164, -6627.85, -6714.08, -6748.35, -6685.16, -39459.57, -91087.91, -145329.27, -140468.77, 0.000, 0.000, 0.000, 17:04:05.815
165, -6627.09, -6713.64, -6748.08, -6685.12, -39459.79, -91087.91, -145329.39, -140469.11, 0.000, 0.000, 0.000, 17:04:05.816
166, -6622.60, -6710.02, -6745.20, -6682.37, -39457.45, -91085.26, -145327.03, -140467.03, 0.000, 0.000, 0.000, 17:04:05.816
167, -6622.20, -6709.70, -6744.95, -6682.08, -39457.22, -91084.79, -145326.61, -140466.45, 0.000, 0.000, 0.000, 17:04:05.816
168, -6625.88, -6712.50, -6747.10, -6684.09, -39459.07, -91086.46, -145327.81, -140467.36, 0.000, 0.000, 0.000, 17:04:05.816
169, -6628.77, -6714.91, -6749.13, -6686.12, -39461.04, -91088.32, -145329.45, -140468.95, 0.000, 0.000, 0.000, 17:04:05.816
170, -6628.01, -6714.55, -6748.98, -6686.10, -39461.31, -91088.32, -145329.55, -140469.17, 0.040, -0.006, 0.978, 17:04:05.816
171, -6622.31, -6709.70, -6744.79, -6682.08, -39457.78, -91084.52, -145326.13, -140465.95, 0.000, 0.000, 0.000, 17:04:05.817
172, -6622.33, -6709.66, -6745.02, -6682.10, -39457.98, -91084.49, -145326.03, -140465.73, 0.000, 0.000, 0.000, 17:04:05.817
173, -6626.00, -6712.59, -6747.23, -6684.13, -39459.81, -91086.17, -145327.28, -140466.72, 0.000, 0.000, 0.000, 17:04:05.817
174, -6626.08, -6712.21, -6746.45, -6683.46, -39458.96, -91085.19, -145326.14, -140465.44, 0.000, 0.000, 0.000, 17:04:05.817
175, -6624.01, -6710.62, -6745.11, -6682.34, -39458.11, -91084.12, -145325.14, -140464.59, 0.000, 0.000, 0.000, 17:04:05.817
176, -6621.75, -6709.35, -6744.53, -6681.79, -39458.23, -91083.83, -145325.11, -140464.80, 0.000, 0.000, 0.000, 17:04:05.818
177, -6621.61, -6709.19, -6744.39, -6681.54, -39458.20, -91083.60, -145324.75, -140464.33, 0.000, 0.000, 0.000, 17:04:05.818
178, -6625.12, -6711.92, -6746.27, -6683.37, -39459.75, -91085.08, -145325.92, -140465.17, 0.000, 0.000, 0.000, 17:04:05.818
179, -6626.78, -6713.19, -6747.10, -6684.31, -39460.55, -91085.68, -145326.33, -140465.59, 0.000, 0.000, 0.000, 17:04:05.818
180, -6625.19, -6712.00, -6746.34, -6683.48, -39460.04, -91084.95, -145325.72, -140465.13, 0.048, 0.000, 0.980, 17:04:05.818
181, -6620.94, -6708.47, -6743.70, -6680.73, -39457.87, -91082.53, -145323.53, -140463.03, 0.000, 0.000, 0.000, 17:04:05.818
182, -6620.74, -6708.29, -6743.50, -6680.49, -39457.87, -91082.23, -145323.06, -140462.61, 0.000, 0.000, 0.000, 17:04:05.819
183, -6627.07, -6713.79, -6748.28, -6685.21, -39462.34, -91086.62, -145327.06, -140466.42, 0.000, 0.000, 0.000, 17:04:05.819
184, -6627.34, -6713.61, -6747.86, -6684.78, -39461.82, -91086.02, -145326.25, -140465.55, 0.000, 0.000, 0.000, 17:04:05.819
185, -6623.87, -6710.51, -6745.00, -6682.21, -39459.48, -91083.38, -145323.69, -140463.08, 0.000, 0.000, 0.000, 17:04:05.819
186, -6620.94, -6708.41, -6743.57, -6680.80, -39458.56, -91082.28, -145322.70, -140462.33, 0.000, 0.000, 0.000, 17:04:05.819
187, -6620.36, -6707.71, -6742.90, -6679.98, -39458.02, -91081.30, -145321.78, -140461.28, 0.000, 0.000, 0.000, 17:04:05.820
188, -6621.91, -6708.41, -6742.94, -6680.02, -39457.78, -91080.85, -145321.09, -140460.34, 0.000, 0.000, 0.000, 17:04:05.820
189, -6624.03, -6710.10, -6744.28, -6681.36, -39459.10, -91082.10, -145322.14, -140461.33, 0.000, 0.000, 0.000, 17:04:05.820
190, -6622.55, -6709.05, -6743.52, -6680.73, -39458.76, -91081.55, -145321.69, -140460.97, 0.052, -0.004, 0.982, 17:04:05.820
191, -6619.07, -6706.40, -6741.55, -6678.92, -39457.33, -91079.94, -145320.23, -140459.66, 0.000, 0.000, 0.000, 17:04:05.820
192, -6619.87, -6707.11, -6742.34, -6679.53, -39458.07, -91080.41, -145320.80, -140459.97, 0.000, 0.000, 0.000, 17:04:05.820
193, -6624.74, -6711.16, -6745.73, -6682.81, -39461.22, -91083.34, -145323.38, -140462.31, 0.000, 0.000, 0.000, 17:04:05.821
194, -6627.38, -6713.48, -6747.72, -6684.78, -39463.21, -91085.14, -145324.95, -140463.86, 0.000, 0.000, 0.000, 17:04:05.821
195, -6626.69, -6713.23, -6747.77, -6685.00, -39463.72, -91085.41, -145325.27, -140464.44, 0.000, 0.000, 0.000, 17:04:05.821
196, -6622.75, -6710.13, -6745.29, -6682.59, -39461.69, -91083.13, -145323.34, -140462.58, 0.000, 0.000, 0.000, 17:04:05.821
197, -6621.86, -6709.14, -6744.44, -6681.52, -39460.66, -91081.88, -145322.03, -140461.20, 0.000, 0.000, 0.000, 17:04:05.821
198, -6625.88, -6712.36, -6747.01, -6684.04, -39462.94, -91084.05, -145323.75, -140462.83, 0.000, 0.000, 0.000, 17:04:05.822
199, -6626.60, -6712.70, -6747.03, -6684.20, -39463.08, -91083.96, -145323.58, -140462.47, 0.000, 0.000, 0.000, 17:04:05.822
200, -6622.96, -6709.70, -6744.24, -6681.54, -39460.66, -91081.39, -145321.19, -140460.13, 0.048, -0.004, 0.984, 17:04:05.822
201, -6620.83, -6708.29, -6743.54, -6680.94, -39460.50, -91081.03, -145321.00, -140460.13, 0.000, 0.000, 0.000, 17:04:05.822
202, -6624.70, -6712.03, -6747.23, -6684.51, -39464.29, -91084.54, -145324.41, -140463.44, 0.000, 0.000, 0.000, 17:04:05.822
203, -6629.24, -6715.63, -6750.05, -6687.37, -39466.86, -91086.93, -145326.52, -140465.31, 0.000, 0.000, 0.000, 17:04:05.822
204, -6628.83, -6714.84, -6749.09, -6686.39, -39465.78, -91085.63, -145325.03, -140463.81, 0.000, 0.000, 0.000, 17:04:05.823
205, -6624.23, -6710.71, -6745.24, -6682.55, -39462.36, -91081.99, -145321.45, -140460.38, 0.000, 0.000, 0.000, 17:04:05.823
206, -6621.08, -6708.45, -6743.66, -6680.98, -39461.22, -91080.65, -145320.23, -140459.39, 0.000, 0.000, 0.000, 17:04:05.823
207, -6621.66, -6708.85, -6744.17, -6681.29, -39461.69, -91080.85, -145320.39, -140459.45, 0.000, 0.000, 0.000, 17:04:05.823
208, -6624.81, -6711.22, -6745.76, -6682.90, -39463.08, -91082.15, -145321.34, -140460.13, 0.000, 0.000, 0.000, 17:04:05.823
209, -6627.67, -6713.73, -6748.04, -6685.32, -39465.40, -91084.18, -145323.23, -140462.06, 0.000, 0.000, 0.000, 17:04:05.824
210, -6625.77, -6712.36, -6746.96, -6684.27, -39464.62, -91083.31, -145322.50, -140461.42, 0.044, -0.006, 0.982, 17:04:05.824
211, -6619.78, -6707.13, -6742.31, -6679.66, -39460.57, -91078.98, -145318.20, -140457.38, 0.000, 0.000, 0.000, 17:04:05.824
212, -6619.94, -6707.18, -6742.31, -6679.64, -39460.62, -91078.62, -145317.94, -140456.95, 0.000, 0.000, 0.000, 17:04:05.824
213, -6624.39, -6710.91, -6745.24, -6682.52, -39463.25, -91081.26, -145320.17, -140458.92, 0.000, 0.000, 0.000, 17:04:05.824
214, -6624.56, -6710.75, -6744.84, -6682.14, -39462.90, -91080.70, -145319.53, -140458.17, 0.000, 0.000, 0.000, 17:04:05.825
215, -6621.82, -6708.54, -6742.98, -6680.42, -39461.54, -91079.09, -145317.98, -140456.84, 0.000, 0.000, 0.000, 17:04:05.825
216, -6617.99, -6705.41, -6740.64, -6678.05, -39459.70, -91076.90, -145316.02, -140455.03, 0.000, 0.000, 0.000, 17:04:05.825
217, -6619.51, -6706.84, -6742.00, -6679.24, -39461.00, -91078.02, -145317.00, -140455.86, 0.000, 0.000, 0.000, 17:04:05.825
218, -6623.47, -6709.99, -6744.44, -6681.70, -39463.16, -91080.02, -145318.70, -140457.38, 0.000, 0.000, 0.000, 17:04:05.825
219, -6624.54, -6710.71, -6744.82, -6682.23, -39463.66, -91080.31, -145318.78, -140457.44, 0.000, 0.000, 0.000, 17:04:05.825
220, -6621.17, -6707.85, -6742.34, -6679.86, -39461.49, -91078.04, -145316.59, -140455.42, 0.042, -0.008, 0.982, 17:04:05.826
221, -6617.32, -6704.74, -6739.90, -6677.40, -39459.59, -91075.73, -145314.59, -140453.53, 0.000, 0.000, 0.000, 17:04:05.826
222, -6617.75, -6704.94, -6740.06, -6677.45, -39459.72, -91075.63, -145314.25, -140453.13, 0.000, 0.000, 0.000, 17:04:05.826
223, -6621.01, -6707.45, -6741.89, -6679.10, -39461.29, -91076.94, -145315.30, -140453.94, 0.000, 0.000, 0.000, 17:04:05.826
224, -6623.07, -6709.23, -6743.30, -6680.65, -39462.81, -91078.30, -145316.55, -140455.16, 0.000, 0.000, 0.000, 17:04:05.826
225, -6619.49, -6706.08, -6740.62, -6678.05, -39460.48, -91075.84, -145314.23, -140452.86, 0.000, 0.000, 0.000, 17:04:05.827
226, -6615.38, -6702.75, -6737.89, -6675.39, -39458.29, -91073.34, -145311.92, -140450.75, 0.000, 0.000, 0.000, 17:04:05.827
227, -6614.69, -6701.99, -6736.97, -6674.32, -39457.40, -91072.23, -145310.61, -140449.39, 0.000, 0.000, 0.000, 17:04:05.827
228, -6619.20, -6705.77, -6740.12, -6677.36, -39460.19, -91074.86, -145312.95, -140451.52, 0.000, 0.000, 0.000, 17:04:05.827
229, -6622.75, -6709.03, -6743.01, -6680.42, -39463.16, -91077.68, -145315.59, -140454.20, 0.000, 0.000, 0.000, 17:04:05.827
230, -6621.21, -6708.00, -6742.38, -6679.93, -39462.92, -91077.25, -145315.34, -140453.94, 0.042, -0.008, 0.978, 17:04:05.827
231, -6616.61, -6704.05, -6739.10, -6676.62, -39460.13, -91074.23, -145312.42, -140451.20, 0.000, 0.000, 0.000, 17:04:05.828
232, -6618.15, -6705.28, -6740.32, -6677.81, -39461.40, -91075.24, -145313.31, -140452.09, 0.000, 0.000, 0.000, 17:04:05.828
233, -6622.06, -6708.34, -6742.78, -6680.27, -39463.64, -91077.12, -145314.97, -140453.55, 0.000, 0.000, 0.000, 17:04:05.828
234, -6621.01, -6707.02, -6741.20, -6678.63, -39462.09, -91075.38, -145313.05, -140451.56, 0.000, 0.000, 0.000, 17:04:05.828
235, -6615.80, -6702.30, -6736.88, -6674.43, -39458.14, -91071.29, -145309.02, -140447.66, 0.000, 0.000, 0.000, 17:04:05.828
236, -6613.72, -6701.10, -6736.26, -6673.83, -39458.02, -91070.93, -145308.84, -140447.63, 0.000, 0.000, 0.000, 17:04:05.828
237, -6614.93, -6702.04, -6737.06, -6674.59, -39458.96, -91071.60, -145309.45, -140448.05, 0.000, 0.000, 0.000, 17:04:05.829
238, -6621.61, -6707.78, -6742.16, -6679.66, -39463.77, -91076.23, -145313.73, -140452.25, 0.000, 0.000, 0.000, 17:04:05.829
239, -6625.33, -6711.27, -6745.53, -6683.01, -39467.01, -91079.29, -145316.84, -140455.16, 0.000, 0.000, 0.000, 17:04:05.829
240, -6622.89, -6709.37, -6744.01, -6681.63, -39465.87, -91078.05, -145315.64, -140454.13, 0.048, -0.006, 0.976, 17:04:05.829
241, -6618.33, -6705.66, -6740.82, -6678.61, -39463.25, -91075.13, -145312.83, -140451.52, 0.000, 0.000, 0.000, 17:04:06.288
242, -6619.16, -6706.22, -6741.31, -6678.97, -39463.72, -91075.33, -145312.95, -140451.41, 0.000, 0.000, 0.000, 17:04:06.288
243, -6622.69, -6708.99, -6743.39, -6680.91, -39465.45, -91076.98, -145314.31, -140452.45, 0.000, 0.000, 0.000, 17:04:06.288
244, -6623.11, -6709.10, -6743.30, -6680.82, -39465.29, -91076.74, -145313.89, -140452.08, 0.000, 0.000, 0.000, 17:04:06.289
245, -6619.76, -6706.31, -6740.79, -6678.46, -39463.32, -91074.41, -145311.70, -140450.02, 0.000, 0.000, 0.000, 17:04:06.289
246, -6615.13, -6702.42, -6737.62, -6675.28, -39460.68, -91071.51, -145308.84, -140447.42, 0.000, 0.000, 0.000, 17:04:06.289
247, -6615.24, -6702.30, -6737.37, -6674.92, -39460.44, -91070.97, -145308.19, -140446.63, 0.000, 0.000, 0.000, 17:04:06.289
248, -6621.35, -6707.51, -6742.02, -6679.53, -39464.82, -91075.11, -145312.06, -140450.25, 0.000, 0.000, 0.000, 17:04:06.289
249, -6622.37, -6708.36, -6742.60, -6680.11, -39465.40, -91075.47, -145312.33, -140450.53, 0.000, 0.000, 0.000, 17:04:06.289
250, -6618.06, -6704.61, -6739.21, -6676.80, -39462.45, -91072.47, -145309.27, -140447.53, 0.000, 0.000, 0.000, 17:04:06.290
251, -6611.80, -6699.13, -6734.29, -6672.04, -39458.05, -91067.80, -145304.80, -140443.25, 0.052, -0.008, 0.974, 17:04:06.290
252, -6612.25, -6699.35, -6734.33, -6671.93, -39458.05, -91067.53, -145304.42, -140442.73, 0.000, 0.000, 0.000, 17:04:06.290
253, -6618.78, -6704.90, -6739.27, -6676.69, -39462.65, -91071.94, -145308.55, -140446.64, 0.000, 0.000, 0.000, 17:04:06.290
254, -6622.62, -6708.47, -6742.63, -6680.18, -39466.09, -91075.17, -145311.69, -140449.73, 0.000, 0.000, 0.000, 17:04:06.290
255, -6619.11, -6705.41, -6740.03, -6677.72, -39463.93, -91072.78, -145309.38, -140447.56, 0.000, 0.000, 0.000, 17:04:06.290
0, -6614.91, -6701.99, -6737.20, -6674.88, -39461.54, -91070.21, -145306.94, -140445.30, 0.000, 0.000, 0.000, 17:04:06.290
1, -6617.77, -6704.67, -6739.65, -6677.23, -39463.95, -91072.34, -145309.00, -140447.22, 0.000, 0.000, 0.000, 17:04:06.291
2, -6621.88, -6707.89, -6742.34, -6679.86, -39466.27, -91074.62, -145310.86, -140448.98, 0.000, 0.000, 0.000, 17:04:06.291
3, -6622.20, -6707.96, -6742.11, -6679.80, -39466.23, -91074.23, -145310.45, -140448.61, 0.000, 0.000, 0.000, 17:04:06.291
4, -6621.82, -6708.03, -6742.60, -6680.42, -39467.12, -91074.99, -145311.33, -140449.64, 0.000, 0.000, 0.000, 17:04:06.291
5, -6619.69, -6706.62, -6741.80, -6679.66, -39466.74, -91074.46, -145310.89, -140449.33, 0.060, -0.008, 0.976, 17:04:06.291
6, -6620.27, -6707.00, -6742.00, -6679.75, -39466.96, -91074.28, -145310.66, -140448.95, 0.000, 0.000, 0.000, 17:04:06.291
7, -6622.82, -6708.76, -6743.21, -6680.91, -39467.86, -91074.95, -145311.06, -140449.17, 0.000, 0.000, 0.000, 17:04:06.292
8, -6621.15, -6706.86, -6741.04, -6678.81, -39465.73, -91072.76, -145308.69, -140446.83, 0.000, 0.000, 0.000, 17:04:06.292
9, -6617.14, -6703.49, -6738.04, -6675.93, -39463.16, -91069.99, -145306.03, -140444.20, 0.000, 0.000, 0.000, 17:04:06.292
10, -6612.90, -6699.98, -6735.05, -6672.96, -39460.82, -91067.38, -145303.55, -140441.84, 0.000, 0.000, 0.000, 17:04:06.292
11, -6615.02, -6701.70, -6736.64, -6674.48, -39462.34, -91068.70, -145304.75, -140442.88, 0.000, 0.000, 0.000, 17:04:06.292
12, -6618.40, -6704.34, -6738.54, -6676.29, -39463.99, -91070.08, -145305.91, -140443.73, 0.000, 0.000, 0.000, 17:04:06.292
13, -6619.45, -6705.23, -6739.25, -6676.94, -39464.64, -91070.55, -145306.31, -140444.09, 0.000, 0.000, 0.000, 17:04:06.293
14, -6618.33, -6704.65, -6739.10, -6676.87, -39464.89, -91070.59, -145306.47, -140444.44, 0.000, 0.000, 0.000, 17:04:06.293
15, -6614.51, -6701.46, -6736.55, -6674.39, -39462.81, -91068.27, -145304.30, -140442.38, 0.054, -0.006, 0.982, 17:04:06.293
16, -6615.27, -6701.92, -6736.93, -6674.61, -39463.12, -91068.38, -145304.27, -140442.11, 0.000, 0.000, 0.000, 17:04:06.293
17, -6617.81, -6703.71, -6738.04, -6675.64, -39463.93, -91069.07, -145304.64, -140442.23, 0.000, 0.000, 0.000, 17:04:06.293
18, -6619.51, -6705.19, -6739.36, -6677.05, -39465.27, -91070.21, -145305.53, -140443.31, 0.000, 0.000, 0.000, 17:04:06.293
19, -6618.22, -6704.41, -6739.07, -6676.87, -39465.47, -91070.19, -145305.59, -140443.61, 0.000, 0.000, 0.000, 17:04:06.294
20, -6614.24, -6701.05, -6736.39, -6674.21, -39463.25, -91067.66, -145303.34, -140441.45, 0.000, 0.000, 0.000, 17:04:06.294
21, -6615.36, -6701.97, -6736.97, -6674.66, -39463.75, -91067.87, -145303.50, -140441.39, 0.000, 0.000, 0.000, 17:04:06.294
22, -6619.49, -6705.39, -6739.65, -6677.40, -39466.23, -91070.19, -145305.44, -140443.19, 0.000, 0.000, 0.000, 17:04:06.294
23, -6620.54, -6706.19, -6740.32, -6678.12, -39466.99, -91070.81, -145305.98, -140443.63, 0.000, 0.000, 0.000, 17:04:06.294
24, -6617.77, -6703.98, -6738.65, -6676.53, -39465.65, -91069.32, -145304.58, -140442.48, 0.000, 0.000, 0.000, 17:04:06.294
25, -6615.47, -6702.37, -6737.71, -6675.55, -39465.18, -91068.55, -145304.02, -140442.00, 0.050, -0.006, 0.986, 17:04:06.295
26, -6616.54, -6703.18, -6738.29, -6675.95, -39465.71, -91068.76, -145304.11, -140441.92, 0.000, 0.000, 0.000, 17:04:06.295
27, -6618.26, -6704.20, -6738.47, -6676.11, -39465.63, -91068.58, -145303.55, -140441.17, 0.000, 0.000, 0.000, 17:04:06.295
28, -6617.32, -6703.09, -6737.24, -6674.88, -39464.37, -91067.22, -145302.05, -140439.52, 0.000, 0.000, 0.000, 17:04:06.295
29, -6615.02, -6701.41, -6735.97, -6673.65, -39463.50, -91066.16, -145301.08, -140438.78, 0.000, 0.000, 0.000, 17:04:06.295
30, -6611.51, -6698.59, -6733.71, -6671.57, -39461.73, -91064.16, -145299.23, -140437.09, 0.000, 0.000, 0.000, 17:04:06.295
31, -6613.17, -6699.85, -6734.71, -6672.44, -39462.76, -91064.89, -145299.80, -140437.53, 0.000, 0.000, 0.000, 17:04:06.295
32, -6617.93, -6703.78, -6737.98, -6675.68, -39465.80, -91067.80, -145302.36, -140439.83, 0.000, 0.000, 0.000, 17:04:06.296
33, -6620.25, -6705.90, -6740.06, -6677.83, -39467.86, -91069.66, -145304.27, -140441.66, 0.000, 0.000, 0.000, 17:04:06.296
34, -6616.25, -6702.60, -6737.17, -6674.99, -39465.38, -91067.02, -145301.73, -140439.33, 0.000, 0.000, 0.000, 17:04:06.296
35, -6612.12, -6699.18, -6734.29, -6672.17, -39463.01, -91064.36, -145299.20, -140436.97, 0.050, -0.006, 0.982, 17:04:06.296
36, -6613.70, -6700.29, -6735.18, -6672.87, -39463.84, -91064.94, -145299.50, -140437.22, 0.000, 0.000, 0.000, 17:04:06.296
37, -6616.21, -6701.92, -6736.15, -6673.83, -39464.57, -91065.45, -145299.70, -140437.33, 0.000, 0.000, 0.000, 17:04:06.296
38, -6616.83, -6702.48, -6736.64, -6674.36, -39465.00, -91065.72, -145299.98, -140437.50, 0.000, 0.000, 0.000, 17:04:06.297
39, -6615.87, -6702.15, -6736.68, -6674.61, -39465.56, -91066.13, -145300.45, -140438.13, 0.000, 0.000, 0.000, 17:04:06.297
40, -6612.25, -6699.15, -6734.36, -6672.26, -39463.70, -91063.91, -145298.45, -140436.20, 0.000, 0.000, 0.000, 17:04:06.297
41, -6615.85, -6702.37, -6737.37, -6675.19, -39466.45, -91066.46, -145300.95, -140438.53, 0.000, 0.000, 0.000, 17:04:06.297
42, -6618.75, -6704.41, -6738.76, -6676.51, -39467.64, -91067.51, -145301.59, -140438.91, 0.000, 0.000, 0.000, 17:04:06.297
43, -6618.82, -6704.34, -6738.56, -6676.40, -39467.48, -91067.13, -145301.11, -140438.44, 0.000, 0.000, 0.000, 17:04:06.297
44, -6614.53, -6700.63, -6735.30, -6673.25, -39464.73, -91064.06, -145298.25, -140435.84, 0.000, 0.000, 0.000, 17:04:06.298
45, -6610.55, -6697.50, -6732.70, -6670.41, -39462.61, -91061.61, -145295.98, -140433.77, 0.048, -0.002, 0.984, 17:04:06.298
46, -6611.44, -6697.95, -6732.93, -6670.52, -39462.70, -91061.49, -145295.66, -140433.23, 0.000, 0.000, 0.000, 17:04:06.298
47, -6614.46, -6700.25, -6734.49, -6672.13, -39464.02, -91062.68, -145296.50, -140433.86, 0.000, 0.000, 0.000, 17:04:06.298
48, -6617.01, -6702.77, -6736.84, -6674.52, -39466.50, -91064.91, -145298.69, -140435.94, 0.000, 0.000, 0.000, 17:04:06.298
49, -6613.41, -6699.73, -6734.31, -6672.22, -39464.51, -91062.66, -145296.59, -140434.16, 0.000, 0.000, 0.000, 17:04:06.298
50, -6607.51, -6694.46, -6729.64, -6667.66, -39460.21, -91058.19, -145292.30, -140429.86, 0.000, 0.000, 0.000, 17:04:06.298
51, -6610.75, -6697.16, -6732.10, -6669.98, -39462.54, -91060.27, -145294.17, -140431.56, 0.000, 0.000, 0.000, 17:04:06.299
52, -6617.88, -6703.44, -6737.73, -6675.57, -39467.93, -91065.43, -145298.98, -140436.28, 0.000, 0.000, 0.000, 17:04:06.299
53, -6619.11, -6704.52, -6738.65, -6676.44, -39468.91, -91066.21, -145299.75, -140437.03, 0.000, 0.000, 0.000, 17:04:06.299
54, -6615.15, -6701.21, -6735.90, -6673.76, -39466.68, -91063.73, -145297.42, -140434.84, 0.000, 0.000, 0.000, 17:04:06.299
55, -6608.90, -6695.71, -6731.00, -6668.91, -39462.16, -91059.04, -145292.69, -140430.33, 0.046, -0.004, 0.982, 17:04:06.299
56, -6610.39, -6696.76, -6731.81, -6669.60, -39462.74, -91059.38, -145292.91, -140430.33, 0.000, 0.000, 0.000, 17:04:06.299
57, -6617.68, -6703.33, -6737.73, -6675.50, -39468.39, -91064.91, -145298.20, -140435.33, 0.000, 0.000, 0.000, 17:04:06.300
58, -6618.04, -6703.65, -6737.75, -6675.77, -39468.64, -91064.89, -145298.25, -140435.27, 0.000, 0.000, 0.000, 17:04:06.300
59, -6615.40, -6701.75, -6736.35, -6674.48, -39467.64, -91063.77, -145297.16, -140434.48, 0.000, 0.000, 0.000, 17:04:06.300
60, -6612.74, -6699.62, -6734.83, -6673.02, -39466.59, -91062.48, -145295.98, -140433.45, 0.000, 0.000, 0.000, 17:04:06.300
61, -6613.01, -6699.42, -6734.47, -6672.42, -39465.96, -91061.61, -145294.88, -140432.19, 0.000, 0.000, 0.000, 17:04:06.300
62, -6614.02, -6699.58, -6733.91, -6671.86, -39465.25, -91060.83, -145293.58, -140430.78, 0.000, 0.000, 0.000, 17:04:06.300
63, -6614.44, -6699.91, -6734.04, -6672.11, -39465.56, -91060.96, -145293.64, -140430.75, 0.000, 0.000, 0.000, 17:04:06.301
64, -6612.79, -6699.06, -6733.66, -6671.75, -39465.71, -91060.71, -145293.73, -140430.97, 0.000, 0.000, 0.000, 17:04:06.301
65, -6609.84, -6696.76, -6731.88, -6670.03, -39464.29, -91059.08, -145292.34, -140429.75, 0.048, -0.006, 0.980, 17:04:06.301
66, -6612.76, -6699.18, -6734.00, -6672.13, -39466.25, -91060.87, -145294.00, -140431.20, 0.000, 0.000, 0.000, 17:04:06.301
67, -6615.15, -6700.85, -6734.96, -6673.16, -39467.01, -91061.54, -145294.25, -140431.25, 0.000, 0.000, 0.000, 17:04:06.301
68, -6616.07, -6701.77, -6735.79, -6673.98, -39467.79, -91062.23, -145294.77, -140431.84, 0.000, 0.000, 0.000, 17:04:06.301
69, -6612.41, -6698.62, -6733.15, -6671.55, -39465.73, -91059.93, -145292.50, -140429.80, 0.000, 0.000, 0.000, 17:04:06.301
70, -6607.22, -6694.08, -6729.19, -6667.50, -39462.20, -91055.95, -145288.77, -140426.19, 0.000, 0.000, 0.000, 17:04:06.302
71, -6611.29, -6697.74, -6732.55, -6670.81, -39465.42, -91058.91, -145291.63, -140428.78, 0.000, 0.000, 0.000, 17:04:06.302
72, -6613.75, -6699.49, -6733.51, -6671.77, -39466.30, -91059.64, -145292.06, -140428.94, 0.000, 0.000, 0.000, 17:04:06.302
73, -6613.64, -6699.29, -6733.26, -6671.50, -39466.18, -91059.30, -145291.59, -140428.47, 0.000, 0.000, 0.000, 17:04:06.303
74, -6612.63, -6699.09, -6733.51, -6671.86, -39466.90, -91059.80, -145292.17, -140429.41, 0.000, 0.000, 0.000, 17:04:06.303
75, -6610.22, -6697.36, -6732.37, -6670.59, -39466.07, -91058.55, -145291.25, -140428.63, 0.044, -0.008, 0.980, 17:04:06.303
76, -6611.27, -6697.83, -6732.59, -6670.72, -39466.09, -91058.45, -145290.88, -140428.00, 0.000, 0.000, 0.000, 17:04:06.303
77, -6613.59, -6699.31, -6733.49, -6671.59, -39466.70, -91058.92, -145291.03, -140427.94, 0.000, 0.000, 0.000, 17:04:06.303
78, -6613.43, -6699.04, -6733.10, -6671.21, -39466.45, -91058.43, -145290.41, -140427.41, 0.000, 0.000, 0.000, 17:04:06.303
79, -6609.46, -6695.64, -6730.20, -6668.40, -39464.04, -91055.84, -145287.98, -140425.20, 0.000, 0.000, 0.000, 17:04:06.304
80, -6604.40, -6691.13, -6726.40, -6664.44, -39460.57, -91052.04, -145284.34, -140421.70, 0.000, 0.000, 0.000, 17:04:06.304
81, -6606.55, -6693.01, -6727.85, -6665.85, -39461.87, -91053.16, -145285.27, -140422.42, 0.000, 0.000, 0.000, 17:04:06.304
82, -6611.29, -6697.05, -6731.18, -6669.18, -39465.00, -91056.16, -145287.81, -140424.81, 0.000, 0.000, 0.000, 17:04:06.304
83, -6609.92, -6695.62, -6729.51, -6667.64, -39463.59, -91054.56, -145286.22, -140423.13, 0.000, 0.000, 0.000, 17:04:06.304
84, -6606.21, -6692.58, -6727.09, -6665.33, -39461.54, -91052.31, -145284.19, -140421.19, 0.000, 0.000, 0.000, 17:04:06.304
85, -6606.71, -6693.59, -6728.68, -6666.90, -39463.50, -91054.05, -145286.05, -140423.22, 0.000, 0.000, 0.000, 17:04:06.304
86, -6609.92, -6696.36, -6731.21, -6669.27, -39465.76, -91056.09, -145287.83, -140424.89, 0.044, -0.004, 0.980, 17:04:06.305
87, -6613.37, -6699.15, -6733.35, -6671.37, -39467.66, -91057.92, -145289.33, -140426.08, 0.000, 0.000, 0.000, 17:04:06.305
88, -6612.74, -6698.30, -6732.50, -6670.59, -39466.92, -91057.02, -145288.33, -140425.09, 0.000, 0.000, 0.000, 17:04:06.305
89, -6609.54, -6695.78, -6730.47, -6668.60, -39465.42, -91055.21, -145286.77, -140423.78, 0.000, 0.000, 0.000, 17:04:06.306
90, -6604.96, -6691.80, -6727.00, -6665.16, -39462.38, -91051.86, -145283.58, -140420.72, 0.000, 0.000, 0.000, 17:04:06.306
91, -6605.66, -6692.02, -6726.85, -6664.98, -39462.05, -91051.39, -145282.89, -140419.83, 0.000, 0.000, 0.000, 17:04:06.306
92, -6610.82, -6696.47, -6730.71, -6668.80, -39465.63, -91054.74, -145285.95, -140422.80, 0.000, 0.000, 0.000, 17:04:06.306
93, -6610.77, -6696.29, -6730.60, -6668.60, -39465.54, -91054.43, -145285.58, -140422.33, 0.000, 0.000, 0.000, 17:04:06.306
94, -6605.79, -6692.16, -6726.96, -6665.04, -39462.32, -91050.99, -145282.31, -140419.22, 0.000, 0.000, 0.000, 17:04:06.306
95, -6603.17, -6690.23, -6725.51, -6663.55, -39461.36, -91049.65, -145281.11, -140418.14, 0.000, 0.000, 0.000, 17:04:06.307
96, -6606.33, -6692.81, -6727.70, -6665.67, -39463.43, -91051.59, -145282.69, -140419.55, 0.040, -0.002, 0.972, 17:04:06.307
97, -6612.09, -6697.79, -6731.92, -6670.03, -39467.61, -91055.55, -145286.31, -140423.00, 0.000, 0.000, 0.000, 17:04:06.307
98, -6612.07, -6697.90, -6731.92, -6670.03, -39467.52, -91055.39, -145286.16, -140422.80, 0.000, 0.000, 0.000, 17:04:06.307
99, -6608.29, -6694.77, -6729.42, -6667.59, -39465.49, -91053.13, -145284.02, -140420.92, 0.000, 0.000, 0.000, 17:04:06.307
100, -6604.09, -6691.15, -6726.33, -6664.51, -39462.79, -91050.07, -145281.17, -140418.17, 0.000, 0.000, 0.000, 17:04:06.307
101, -6606.95, -6693.45, -6728.41, -6666.30, -39464.66, -91051.70, -145282.58, -140419.36, 0.000, 0.000, 0.000, 17:04:06.308
102, -6611.96, -6697.79, -6732.10, -6670.07, -39468.15, -91055.02, -145285.59, -140422.27, 0.000, 0.000, 0.000, 17:04:06.308
103, -6610.73, -6696.60, -6730.83, -6668.78, -39466.94, -91053.70, -145284.28, -140420.83, 0.000, 0.000, 0.000, 17:04:06.308
104, -6607.33, -6693.74, -6728.46, -6666.54, -39465.07, -91051.64, -145282.33, -140419.16, 0.000, 0.000, 0.000, 17:04:06.308
105, -6604.23, -6691.26, -6726.60, -6664.55, -39463.43, -91049.76, -145280.66, -140417.56, 0.000, 0.000, 0.000, 17:04:06.770
106, -6606.08, -6692.63, -6727.70, -6665.54, -39464.37, -91050.38, -145281.14, -140417.81, 0.042, 0.000, 0.974, 17:04:06.770
107, -6608.00, -6693.81, -6728.08, -6666.05, -39464.75, -91050.59, -145280.86, -140417.50, 0.000, 0.000, 0.000, 17:04:06.770
108, -6608.00, -6693.83, -6728.12, -6666.01, -39464.80, -91050.38, -145280.72, -140417.31, 0.000, 0.000, 0.000, 17:04:06.770
109, -6605.23, -6691.75, -6726.56, -6664.55, -39463.70, -91049.02, -145279.63, -140416.38, 0.000, 0.000, 0.000, 17:04:06.771
110, -6602.84, -6689.85, -6725.13, -6663.19, -39462.68, -91047.68, -145278.41, -140415.23, 0.000, 0.000, 0.000, 17:04:06.771
111, -6607.33, -6693.88, -6728.75, -6666.65, -39466.16, -91050.99, -145281.39, -140418.03, 0.000, 0.000, 0.000, 17:04:06.771
112, -6612.12, -6697.97, -6732.26, -6670.03, -39469.36, -91054.05, -145284.14, -140420.67, 0.000, 0.000, 0.000, 17:04:06.771
113, -6611.38, -6697.28, -6731.43, -6669.34, -39468.69, -91053.29, -145283.23, -140419.83, 0.000, 0.000, 0.000, 17:04:06.771
114, -6606.26, -6692.87, -6727.65, -6665.65, -39465.33, -91049.72, -145279.88, -140416.52, 0.000, 0.000, 0.000, 17:04:06.771
115, -6603.11, -6690.23, -6725.57, -6663.59, -39463.50, -91047.68, -145277.97, -140414.69, 0.000, 0.000, 0.000, 17:04:06.771
116, -6605.21, -6691.80, -6726.71, -6664.53, -39464.46, -91048.33, -145278.33, -140414.81, 0.048, -0.004, 0.972, 17:04:06.772
117, -6610.39, -6696.31, -6730.56, -6668.26, -39468.08, -91051.80, -145281.53, -140417.81, 0.000, 0.000, 0.000, 17:04:06.772
118, -6610.66, -6696.72, -6730.80, -6668.60, -39468.53, -91052.02, -145281.70, -140418.13, 0.000, 0.000, 0.000, 17:04:06.772
119, -6606.10, -6692.94, -6727.47, -6665.54, -39465.71, -91048.98, -145278.88, -140415.42, 0.000, 0.000, 0.000, 17:04:06.772
120, -6601.19, -6688.58, -6723.54, -6661.65, -39462.20, -91045.18, -145275.30, -140411.75, 0.000, 0.000, 0.000, 17:04:06.772
121, -6604.25, -6691.08, -6725.71, -6663.66, -39464.13, -91046.88, -145276.72, -140413.14, 0.000, 0.000, 0.000, 17:04:06.772
122, -6604.98, -6691.11, -6725.17, -6663.10, -39463.43, -91046.01, -145275.52, -140411.80, 0.000, 0.000, 0.000, 17:04:06.772
123, -6604.96, -6691.15, -6725.13, -6663.17, -39463.59, -91046.01, -145275.42, -140411.73, 0.000, 0.000, 0.000, 17:04:06.773
124, -6604.38, -6691.22, -6725.77, -6663.97, -39464.73, -91046.92, -145276.48, -140412.98, 0.000, 0.000, 0.000, 17:04:06.773
125, -6602.30, -6689.68, -6724.77, -6662.94, -39464.04, -91045.88, -145275.63, -140412.22, 0.000, 0.000, 0.000, 17:04:06.773
126, -6605.50, -6692.25, -6726.96, -6664.89, -39465.91, -91047.57, -145277.19, -140413.56, 0.044, -0.002, 0.966, 17:04:06.773
127, -6611.33, -6697.32, -6731.36, -6669.34, -39470.18, -91051.73, -145280.92, -140417.14, 0.000, 0.000, 0.000, 17:04:06.773
128, -6610.51, -6696.54, -6730.51, -6668.58, -39469.60, -91050.81, -145280.02, -140416.20, 0.000, 0.000, 0.000, 17:04:06.773
129, -6605.83, -6692.56, -6727.23, -6665.29, -39466.79, -91047.64, -145277.19, -140413.56, 0.000, 0.000, 0.000, 17:04:06.774
130, -6603.78, -6691.08, -6726.20, -6664.19, -39465.89, -91046.68, -145276.25, -140412.73, 0.000, 0.000, 0.000, 17:04:06.774
131, -6607.29, -6694.03, -6728.72, -6666.65, -39468.13, -91048.82, -145278.05, -140414.38, 0.000, 0.000, 0.000, 17:04:06.774
132, -6609.99, -6695.89, -6730.02, -6667.95, -39469.27, -91049.72, -145278.72, -140414.86, 0.000, 0.000, 0.000, 17:04:06.774
133, -6608.18, -6694.12, -6728.17, -6666.14, -39467.55, -91047.80, -145276.81, -140412.98, 0.000, 0.000, 0.000, 17:04:06.774
134, -6603.02, -6689.79, -6724.39, -6662.36, -39464.29, -91044.22, -145273.44, -140409.67, 0.000, 0.000, 0.000, 17:04:06.774
135, -6600.45, -6687.69, -6722.78, -6660.75, -39462.99, -91042.72, -145271.94, -140408.33, 0.000, 0.000, 0.000, 17:04:06.775
136, -6603.53, -6690.01, -6724.68, -6662.61, -39464.80, -91044.28, -145273.28, -140409.45, 0.044, -0.002, 0.970, 17:04:06.775
137, -6605.21, -6691.15, -6725.08, -6663.10, -39465.07, -91044.40, -145273.02, -140409.11, 0.000, 0.000, 0.000, 17:04:06.775
138, -6603.58, -6689.59, -6723.56, -6661.62, -39463.68, -91042.79, -145271.52, -140407.64, 0.000, 0.000, 0.000, 17:04:06.775
139, -6600.22, -6686.86, -6721.53, -6659.72, -39462.09, -91041.06, -145269.92, -140406.14, 0.000, 0.000, 0.000, 17:04:06.775
140, -6598.30, -6685.45, -6720.54, -6658.65, -39461.40, -91040.20, -145268.94, -140405.31, 0.000, 0.000, 0.000, 17:04:06.776
141, -6603.08, -6689.59, -6724.23, -6662.21, -39464.93, -91043.48, -145271.97, -140408.17, 0.000, 0.000, 0.000, 17:04:06.776
142, -6608.65, -6694.55, -6728.43, -6666.56, -39469.11, -91047.50, -145275.77, -140411.80, 0.000, 0.000, 0.000, 17:04:06.776
143, -6609.97, -6695.84, -6729.69, -6667.95, -39470.63, -91048.76, -145277.06, -140413.14, 0.000, 0.000, 0.000, 17:04:06.776
144, -6606.53, -6693.12, -6727.72, -6665.89, -39468.93, -91046.79, -145275.41, -140411.63, 0.000, 0.000, 0.000, 17:04:06.776
145, -6603.69, -6690.79, -6725.89, -6664.04, -39467.34, -91045.00, -145273.70, -140409.91, 0.000, 0.000, 0.000, 17:04:06.776
146, -6608.72, -6695.31, -6729.82, -6667.84, -39471.10, -91048.58, -145276.91, -140412.94, 0.048, 0.000, 0.970, 17:04:06.777
147, -6609.52, -6695.38, -6729.35, -6667.30, -39470.36, -91047.66, -145275.83, -140411.70, 0.000, 0.000, 0.000, 17:04:06.777
148, -6607.04, -6692.92, -6726.98, -6665.11, -39468.30, -91045.29, -145273.44, -140409.31, 0.000, 0.000, 0.000, 17:04:06.777
149, -6603.35, -6689.97, -6724.66, -6662.85, -39466.32, -91043.16, -145271.52, -140407.63, 0.000, 0.000, 0.000, 17:04:06.777
150, -6602.01, -6689.09, -6724.14, -6662.27, -39466.05, -91042.63, -145271.11, -140407.23, 0.000, 0.000, 0.000, 17:04:06.777
151, -6606.30, -6692.76, -6727.41, -6665.38, -39469.09, -91045.52, -145273.69, -140409.67, 0.000, 0.000, 0.000, 17:04:06.777
152, -6608.56, -6694.28, -6728.37, -6666.45, -39470.00, -91046.16, -145274.06, -140409.88, 0.000, 0.000, 0.000, 17:04:06.778
153, -6607.80, -6693.61, -6727.67, -6665.87, -39469.47, -91045.40, -145273.38, -140409.05, 0.000, 0.000, 0.000, 17:04:06.778
154, -6603.17, -6689.74, -6724.46, -6662.63, -39466.68, -91042.41, -145270.59, -140406.48, 0.000, 0.000, 0.000, 17:04:06.778
155, -6599.60, -6686.61, -6721.59, -6659.79, -39464.24, -91039.70, -145267.88, -140404.06, 0.000, 0.000, 0.000, 17:04:06.778
156, -6605.48, -6691.78, -6726.33, -6664.44, -39468.75, -91043.99, -145271.89, -140407.80, 0.050, -0.002, 0.978, 17:04:06.778
157, -6609.68, -6695.38, -6729.42, -6667.46, -39471.55, -91046.59, -145274.36, -140409.92, 0.000, 0.000, 0.000, 17:04:06.778
158, -6608.34, -6694.03, -6728.14, -6666.32, -39470.52, -91045.38, -145273.02, -140408.64, 0.000, 0.000, 0.000, 17:04:06.778
159, -6602.77, -6689.18, -6723.92, -6662.14, -39466.74, -91041.42, -145269.22, -140404.98, 0.000, 0.000, 0.000, 17:04:06.779
160, -6600.05, -6686.88, -6722.09, -6660.26, -39465.16, -91039.57, -145267.41, -140403.31, 0.000, 0.000, 0.000, 17:04:06.779
161, -6604.58, -6690.82, -6725.44, -6663.73, -39468.39, -91042.54, -145270.22, -140405.89, 0.000, 0.000, 0.000, 17:04:06.779
162, -6607.33, -6692.81, -6726.89, -6665.16, -39469.76, -91043.73, -145271.06, -140406.64, 0.000, 0.000, 0.000, 17:04:06.779
163, -6605.88, -6691.40, -6725.57, -6663.75, -39468.62, -91042.36, -145269.70, -140405.34, 0.000, 0.000, 0.000, 17:04:06.779
164, -6603.96, -6690.17, -6724.95, -6663.26, -39468.39, -91041.96, -145269.59, -140405.41, 0.000, 0.000, 0.000, 17:04:06.779
165, -6602.46, -6689.07, -6724.28, -6662.52, -39467.90, -91041.20, -145268.98, -140404.75, 0.000, 0.000, 0.000, 17:04:06.779
166, -6605.19, -6691.08, -6725.80, -6663.88, -39469.25, -91042.32, -145269.72, -140405.31, 0.052, 0.000, 0.974, 17:04:06.780
167, -6605.92, -6691.13, -6725.28, -6663.41, -39468.55, -91041.58, -145268.56, -140404.09, 0.000, 0.000, 0.000, 17:04:06.780
168, -6605.10, -6690.30, -6724.57, -6662.79, -39468.17, -91040.95, -145267.89, -140403.42, 0.000, 0.000, 0.000, 17:04:06.780
169, -6600.85, -6686.77, -6721.66, -6659.95, -39465.82, -91038.25, -145265.50, -140401.25, 0.000, 0.000, 0.000, 17:04:06.780
170, -6600.69, -6686.95, -6722.29, -6660.51, -39466.77, -91038.85, -145266.22, -140401.94, 0.000, 0.000, 0.000, 17:04:06.780
171, -6603.00, -6688.63, -6723.49, -6661.62, -39467.70, -91039.61, -145266.63, -140402.19, 0.000, 0.000, 0.000, 17:04:06.780
172, -6605.34, -6690.30, -6724.72, -6662.90, -39468.73, -91040.48, -145267.30, -140402.72, 0.000, 0.000, 0.000, 17:04:06.781
173, -6605.52, -6690.59, -6725.13, -6663.30, -39469.20, -91040.80, -145267.61, -140403.02, 0.000, 0.000, 0.000, 17:04:06.781
174, -6600.76, -6686.55, -6721.75, -6660.08, -39466.34, -91037.63, -145264.67, -140400.16, 0.000, 0.000, 0.000, 17:04:06.781
175, -6597.41, -6683.53, -6719.14, -6657.44, -39463.93, -91035.05, -145262.13, -140397.77, 0.000, 0.000, 0.000, 17:04:06.781
176, -6600.81, -6686.30, -6721.42, -6659.50, -39465.96, -91036.84, -145263.72, -140399.11, 0.000, 0.000, 0.000, 17:04:06.781
177, -6606.06, -6690.99, -6725.51, -6663.70, -39470.07, -91040.69, -145267.27, -140402.59, 0.046, 0.000, 0.978, 17:04:06.781
178, -6603.78, -6688.85, -6723.34, -6661.74, -39468.17, -91038.63, -145265.19, -140400.48, 0.000, 0.000, 0.000, 17:04:06.782
179, -6599.89, -6685.56, -6720.88, -6659.34, -39466.14, -91036.39, -145263.02, -140398.55, 0.000, 0.000, 0.000, 17:04:06.782
180, -6600.16, -6686.19, -6721.93, -6660.28, -39467.34, -91037.36, -145264.11, -140399.80, 0.000, 0.000, 0.000, 17:04:06.782
181, -6603.98, -6689.36, -6724.61, -6662.83, -39469.67, -91039.41, -145266.08, -140401.50, 0.000, 0.000, 0.000, 17:04:06.782
182, -6608.34, -6693.14, -6727.74, -6666.07, -39472.78, -91042.36, -145268.72, -140403.89, 0.000, 0.000, 0.000, 17:04:06.782
183, -6606.46, -6691.44, -6726.18, -6664.53, -39471.35, -91040.64, -145267.02, -140402.25, 0.000, 0.000, 0.000, 17:04:06.782
184, -6600.51, -6686.19, -6721.53, -6659.95, -39467.28, -91036.35, -145262.80, -140398.30, 0.000, 0.000, 0.000, 17:04:06.783
185, -6600.40, -6686.55, -6722.22, -6660.55, -39468.17, -91037.16, -145263.63, -140399.08, 0.000, 0.000, 0.000, 17:04:06.783
186, -6606.19, -6691.64, -6726.87, -6664.98, -39472.46, -91041.20, -145267.42, -140402.77, 0.000, 0.000, 0.000, 17:04:06.783
187, -6608.43, -6693.19, -6727.90, -6666.09, -39473.25, -91041.96, -145267.83, -140402.98, 0.044, 0.000, 0.980, 17:04:06.783
188, -6608.43, -6693.25, -6728.08, -6666.32, -39473.70, -91042.14, -145268.09, -140403.28, 0.000, 0.000, 0.000, 17:04:06.783
189, -6606.04, -6691.67, -6727.09, -6665.45, -39473.31, -91041.52, -145267.64, -140403.13, 0.000, 0.000, 0.000, 17:04:06.783
190, -6605.70, -6691.69, -6727.47, -6665.89, -39473.89, -91041.80, -145268.00, -140403.47, 0.000, 0.000, 0.000, 17:04:06.784
191, -6608.49, -6693.81, -6729.04, -6667.44, -39475.26, -91042.90, -145268.83, -140404.05, 0.000, 0.000, 0.000, 17:04:06.784
192, -6610.28, -6695.06, -6729.80, -6668.20, -39475.75, -91043.28, -145268.97, -140404.06, 0.000, 0.000, 0.000, 17:04:06.784
193, -6608.14, -6693.03, -6727.96, -6666.43, -39474.12, -91041.42, -145267.05, -140402.28, 0.000, 0.000, 0.000, 17:04:06.784
194, -6603.02, -6688.60, -6724.12, -6662.76, -39470.86, -91037.80, -145263.64, -140399.03, 0.000, 0.000, 0.000, 17:04:06.784
195, -6602.12, -6688.20, -6724.03, -6662.45, -39470.92, -91037.63, -145263.56, -140398.98, 0.000, 0.000, 0.000, 17:04:06.785
196, -6606.75, -6692.16, -6727.47, -6665.71, -39474.03, -91040.69, -145266.13, -140401.38, 0.000, 0.000, 0.000, 17:04:06.785
197, -6609.95, -6694.62, -6729.48, -6667.77, -39475.95, -91042.38, -145267.56, -140402.75, 0.044, -0.002, 0.982, 17:04:06.785
198, -6609.23, -6693.99, -6729.04, -6667.44, -39475.64, -91041.87, -145267.09, -140402.23, 0.000, 0.000, 0.000, 17:04:06.785
199, -6605.43, -6690.91, -6726.69, -6665.04, -39473.63, -91039.70, -145265.19, -140400.48, 0.000, 0.000, 0.000, 17:04:06.785
200, -6606.35, -6692.20, -6728.23, -6666.56, -39475.50, -91041.31, -145266.80, -140402.09, 0.000, 0.000, 0.000, 17:04:06.785
201, -6608.16, -6693.36, -6728.77, -6667.01, -39475.73, -91041.34, -145266.58, -140401.56, 0.000, 0.000, 0.000, 17:04:06.786
202, -6609.34, -6694.06, -6728.90, -6667.19, -39475.77, -91041.13, -145266.16, -140401.05, 0.000, 0.000, 0.000, 17:04:06.786
203, -6609.88, -6694.77, -6729.75, -6668.13, -39476.84, -91041.98, -145267.02, -140402.02, 0.000, 0.000, 0.000, 17:04:06.786
204, -6606.64, -6692.18, -6727.92, -6666.50, -39475.50, -91040.46, -145265.72, -140400.91, 0.000, 0.000, 0.000, 17:04:06.786
205, -6602.53, -6688.40, -6724.46, -6662.85, -39472.20, -91036.87, -145262.19, -140397.47, 0.000, 0.000, 0.000, 17:04:06.786
206, -6605.43, -6690.59, -6726.13, -6664.37, -39473.49, -91038.02, -145262.91, -140398.08, 0.000, 0.000, 0.000, 17:04:06.786
207, -6606.93, -6691.53, -6726.60, -6664.82, -39473.85, -91038.14, -145262.84, -140397.81, 0.048, -0.002, 0.980, 17:04:06.787
208, -6605.10, -6689.92, -6725.06, -6663.41, -39472.60, -91036.62, -145261.44, -140396.42, 0.000, 0.000, 0.000, 17:04:06.787
209, -6600.65, -6686.26, -6722.11, -6660.48, -39470.14, -91033.87, -145258.89, -140394.09, 0.000, 0.000, 0.000, 17:04:06.787
210, -6599.87, -6685.67, -6721.84, -6660.17, -39470.07, -91033.60, -145258.58, -140393.69, 0.000, 0.000, 0.000, 17:04:06.787
211, -6600.56, -6685.61, -6721.10, -6659.41, -39469.07, -91032.44, -145257.09, -140391.97, 0.000, 0.000, 0.000, 17:04:06.787
212, -6604.52, -6689.09, -6724.05, -6662.43, -39471.91, -91035.03, -145259.53, -140394.23, 0.000, 0.000, 0.000, 17:04:06.787
213, -6602.97, -6687.69, -6722.82, -6661.29, -39470.99, -91033.84, -145258.33, -140393.09, 0.000, 0.000, 0.000, 17:04:06.788
214, -6600.05, -6685.36, -6721.28, -6659.79, -39469.98, -91032.59, -145257.23, -140392.28, 0.000, 0.000, 0.000, 17:04:06.788
215, -6599.04, -6684.62, -6720.81, -6659.32, -39469.67, -91032.05, -145256.73, -140391.70, 0.000, 0.000, 0.000, 17:04:06.788
216, -6601.56, -6686.50, -6722.09, -6660.53, -39470.56, -91032.84, -145257.28, -140392.00, 0.000, 0.000, 0.000, 17:04:06.788
217, -6603.17, -6687.57, -6722.69, -6661.27, -39471.10, -91033.16, -145257.41, -140392.00, 0.048, -0.004, 0.978, 17:04:06.788
218, -6603.46, -6688.07, -6723.27, -6662.03, -39472.02, -91033.87, -145258.17, -140392.75, 0.000, 0.000, 0.000, 17:04:06.788
219, -6600.16, -6685.45, -6721.37, -6660.13, -39470.52, -91032.15, -145256.70, -140391.44, 0.000, 0.000, 0.000, 17:04:06.789
220, -6598.55, -6684.09, -6720.14, -6658.90, -39469.54, -91030.85, -145255.44, -140390.19, 0.000, 0.000, 0.000, 17:04:06.789
221, -6602.64, -6687.44, -6722.87, -6661.51, -39472.00, -91033.20, -145257.36, -140392.00, 0.000, 0.000, 0.000, 17:04:06.789
222, -6606.26, -6690.55, -6725.39, -6664.13, -39474.50, -91035.57, -145259.38, -140394.00, 0.000, 0.000, 0.000, 17:04:06.789
223, -6605.92, -6690.52, -6725.59, -6664.22, -39474.79, -91035.70, -145259.59, -140394.14, 0.000, 0.000, 0.000, 17:04:06.789
224, -6601.83, -6687.28, -6722.96, -6661.71, -39472.71, -91033.35, -145257.52, -140392.13, 0.000, 0.000, 0.000, 17:04:06.789
225, -6599.04, -6684.71, -6720.70, -6659.30, -39470.61, -91030.92, -145255.06, -140389.80, 0.000, 0.000, 0.000, 17:04:07.251
226, -6601.90, -6686.79, -6722.20, -6660.69, -39471.77, -91031.88, -145255.73, -140390.28, 0.000, 0.000, 0.000, 17:04:07.252
227, -6606.08, -6690.44, -6725.35, -6663.95, -39474.79, -91034.70, -145258.33, -140392.73, 0.048, -0.006, 0.980, 17:04:07.252
228, -6604.31, -6688.89, -6723.99, -6662.63, -39473.67, -91033.35, -145257.09, -140391.44, 0.000, 0.000, 0.000, 17:04:07.252
229, -6599.11, -6684.42, -6720.12, -6658.92, -39470.43, -91029.94, -145253.83, -140388.28, 0.000, 0.000, 0.000, 17:04:07.252
230, -6597.85, -6683.51, -6719.47, -6658.20, -39469.98, -91029.13, -145253.00, -140387.45, 0.000, 0.000, 0.000, 17:04:07.252
231, -6602.35, -6687.22, -6722.56, -6661.11, -39472.75, -91031.70, -145255.22, -140389.61, 0.000, 0.000, 0.000, 17:04:07.252
232, -6604.36, -6688.78, -6723.72, -6662.25, -39473.65, -91032.44, -145255.80, -140390.05, 0.000, 0.000, 0.000, 17:04:07.253
233, -6601.25, -6685.85, -6721.04, -6659.72, -39471.21, -91029.80, -145253.20, -140387.59, 0.000, 0.000, 0.000, 17:04:07.253
234, -6598.99, -6684.47, -6720.21, -6659.01, -39470.92, -91029.31, -145252.83, -140387.45, 0.000, 0.000, 0.000, 17:04:07.253
235, -6598.64, -6684.33, -6720.25, -6659.05, -39471.04, -91029.17, -145252.67, -140387.30, 0.000, 0.000, 0.000, 17:04:07.253
236, -6603.06, -6688.07, -6723.38, -6662.03, -39473.87, -91031.88, -145255.11, -140389.47, 0.000, 0.000, 0.000, 17:04:07.253
237, -6605.63, -6690.17, -6724.95, -6663.73, -39475.39, -91033.22, -145256.31, -140390.50, 0.050, -0.006, 0.980, 17:04:07.253
238, -6603.02, -6687.84, -6722.78, -6661.56, -39473.56, -91031.21, -145254.28, -140388.64, 0.000, 0.000, 0.000, 17:04:07.253
239, -6599.44, -6685.05, -6720.68, -6659.41, -39471.97, -91029.35, -145252.61, -140387.14, 0.000, 0.000, 0.000, 17:04:07.254
240, -6596.87, -6682.70, -6718.55, -6657.22, -39470.00, -91027.09, -145250.34, -140384.84, 0.000, 0.000, 0.000, 17:04:07.254
241, -6599.64, -6684.74, -6720.10, -6658.61, -39471.14, -91028.03, -145250.92, -140385.25, 0.000, 0.000, 0.000, 17:04:07.254
242, -6604.02, -6688.49, -6723.45, -6662.03, -39474.34, -91031.03, -145253.75, -140388.03, 0.000, 0.000, 0.000, 17:04:07.254
243, -6602.53, -6687.28, -6722.38, -6661.02, -39473.54, -91030.07, -145252.83, -140387.19, 0.000, 0.000, 0.000, 17:04:07.254
244, -6596.58, -6682.10, -6717.88, -6656.64, -39469.54, -91025.80, -145248.81, -140383.36, 0.000, 0.000, 0.000, 17:04:07.254
245, -6595.75, -6681.54, -6717.64, -6656.22, -39469.31, -91025.38, -145248.41, -140382.83, 0.000, 0.000, 0.000, 17:04:07.254
246, -6599.51, -6684.56, -6720.05, -6658.41, -39471.37, -91027.30, -145249.98, -140384.23, 0.000, 0.000, 0.000, 17:04:07.255
247, -6601.79, -6686.43, -6721.33, -6659.77, -39472.55, -91028.39, -145250.81, -140384.94, 0.054, -0.010, 0.980, 17:04:07.255
248, -6600.11, -6685.09, -6720.07, -6658.70, -39471.75, -91027.34, -145249.72, -140383.84, 0.000, 0.000, 0.000, 17:04:07.255
249, -6596.98, -6682.63, -6718.35, -6657.06, -39470.59, -91025.82, -145248.47, -140382.78, 0.000, 0.000, 0.000, 17:04:07.255
250, -6595.98, -6681.74, -6717.57, -6656.33, -39470.07, -91024.97, -145247.67, -140381.94, 0.000, 0.000, 0.000, 17:04:07.255
251, -6599.55, -6684.65, -6719.87, -6658.58, -39472.11, -91026.72, -145249.05, -140383.17, 0.000, 0.000, 0.000, 17:04:07.255
252, -6602.46, -6687.02, -6721.88, -6660.62, -39473.98, -91028.48, -145250.50, -140384.53, 0.000, 0.000, 0.000, 17:04:07.256
253, -6601.16, -6685.97, -6720.97, -6659.63, -39473.22, -91027.61, -145249.66, -140383.75, 0.000, 0.000, 0.000, 17:04:07.256
254, -6597.07, -6682.70, -6718.35, -6657.04, -39471.12, -91025.24, -145247.59, -140381.83, 0.000, 0.000, 0.000, 17:04:07.256
255, -6595.19, -6681.09, -6716.94, -6655.50, -39469.76, -91023.72, -145246.09, -140380.23, 0.000, 0.000, 0.000, 17:04:07.256
0, -6600.00, -6685.07, -6720.28, -6658.79, -39472.91, -91026.58, -145248.61, -140382.52, 0.000, 0.000, 0.000, 17:04:07.256
1, -6601.90, -6686.57, -6721.24, -6659.88, -39473.80, -91027.27, -145249.08, -140383.02, 0.048, -0.006, 0.976, 17:04:07.256
2, -6600.67, -6685.56, -6720.43, -6659.32, -39473.16, -91026.52, -145248.42, -140382.52, 0.000, 0.000, 0.000, 17:04:07.257
3, -6595.82, -6681.41, -6717.08, -6655.92, -39470.23, -91023.27, -145245.41, -140379.66, 0.000, 0.000, 0.000, 17:04:07.257
4, -6594.97, -6680.76, -6716.54, -6655.25, -39469.74, -91022.58, -145244.58, -140378.88, 0.000, 0.000, 0.000, 17:04:07.257
5, -6601.05, -6686.10, -6721.17, -6659.84, -39474.30, -91026.85, -145248.52, -140382.67, 0.000, 0.000, 0.000, 17:04:07.257
6, -6604.74, -6689.27, -6724.01, -6662.74, -39477.07, -91029.35, -145250.92, -140384.86, 0.000, 0.000, 0.000, 17:04:07.257
7, -6602.93, -6687.84, -6722.71, -6661.53, -39475.95, -91028.17, -145249.75, -140383.75, 0.000, 0.000, 0.000, 17:04:07.257
8, -6600.18, -6685.88, -6721.37, -6660.24, -39475.17, -91027.09, -145248.92, -140383.05, 0.000, 0.000, 0.000, 17:04:07.258
9, -6598.88, -6684.60, -6720.30, -6659.14, -39474.23, -91025.87, -145247.69, -140381.78, 0.000, 0.000, 0.000, 17:04:07.258
10, -6601.12, -6686.05, -6721.10, -6659.97, -39474.77, -91026.29, -145247.69, -140381.64, 0.000, 0.000, 0.000, 17:04:07.258
11, -6603.11, -6687.60, -6722.33, -6661.22, -39475.79, -91027.09, -145248.38, -140382.25, 0.048, -0.004, 0.984, 17:04:07.258
12, -6602.93, -6687.82, -6722.78, -6661.69, -39476.53, -91027.68, -145248.92, -140382.83, 0.000, 0.000, 0.000, 17:04:07.258
13, -6598.28, -6683.93, -6719.52, -6658.47, -39473.78, -91024.62, -145246.14, -140380.28, 0.000, 0.000, 0.000, 17:04:07.258
14, -6596.98, -6682.59, -6718.40, -6657.11, -39472.69, -91023.25, -145244.77, -140378.97, 0.000, 0.000, 0.000, 17:04:07.258
15, -6600.94, -6685.79, -6720.92, -6659.48, -39474.79, -91025.30, -145246.55, -140380.39, 0.000, 0.000, 0.000, 17:04:07.259
16, -6603.06, -6687.55, -6722.22, -6660.98, -39476.09, -91026.54, -145247.36, -140381.11, 0.000, 0.000, 0.000, 17:04:07.259
17, -6603.62, -6688.29, -6723.20, -6662.09, -39477.34, -91027.63, -145248.42, -140382.36, 0.000, 0.000, 0.000, 17:04:07.259
18, -6601.03, -6686.50, -6722.04, -6660.95, -39476.67, -91026.60, -145247.83, -140381.78, 0.000, 0.000, 0.000, 17:04:07.259
19, -6598.17, -6683.71, -6719.47, -6658.29, -39474.07, -91023.72, -145245.00, -140378.97, 0.000, 0.000, 0.000, 17:04:07.259
20, -6602.35, -6687.33, -6722.38, -6661.09, -39476.62, -91026.11, -145246.97, -140380.89, 0.000, 0.000, 0.000, 17:04:07.259
21, -6604.40, -6688.96, -6723.67, -6662.25, -39477.80, -91027.12, -145247.67, -140381.52, 0.000, 0.000, 0.000, 17:04:07.259
22, -6602.68, -6687.57, -6722.40, -6661.11, -39476.98, -91025.94, -145246.59, -140380.48, 0.042, -0.002, 0.980, 17:04:07.260
23, -6596.98, -6682.52, -6718.11, -6656.89, -39473.25, -91021.91, -145242.81, -140376.89, 0.000, 0.000, 0.000, 17:04:07.260
24, -6596.65, -6682.30, -6718.11, -6656.80, -39473.25, -91021.62, -145242.64, -140376.53, 0.000, 0.000, 0.000, 17:04:07.260
25, -6599.69, -6684.60, -6719.72, -6658.38, -39474.54, -91022.78, -145243.42, -140377.17, 0.000, 0.000, 0.000, 17:04:07.260
26, -6600.43, -6684.89, -6719.65, -6658.34, -39474.41, -91022.45, -145242.80, -140376.53, 0.000, 0.000, 0.000, 17:04:07.260
27, -6599.11, -6683.86, -6718.93, -6657.67, -39474.01, -91021.80, -145242.23, -140375.97, 0.000, 0.000, 0.000, 17:04:07.260
28, -6595.17, -6680.80, -6716.45, -6655.32, -39472.04, -91019.63, -145240.31, -140374.19, 0.000, 0.000, 0.000, 17:04:07.260
29, -6596.33, -6681.99, -6717.75, -6656.57, -39473.36, -91020.75, -145241.34, -140375.25, 0.000, 0.000, 0.000, 17:04:07.261
30, -6602.17, -6686.88, -6722.04, -6660.84, -39477.36, -91024.68, -145244.84, -140378.63, 0.000, 0.000, 0.000, 17:04:07.261
31, -6603.93, -6688.20, -6722.89, -6661.80, -39478.28, -91025.35, -145245.41, -140379.02, 0.000, 0.000, 0.000, 17:04:07.261
32, -6600.83, -6685.50, -6720.48, -6659.50, -39476.04, -91022.94, -145243.02, -140376.75, 0.044, 0.000, 0.976, 17:04:07.261
33, -6595.57, -6681.07, -6716.74, -6655.86, -39472.78, -91019.41, -145239.70, -140373.63, 0.000, 0.000, 0.000, 17:04:07.261
34, -6596.74, -6682.32, -6718.13, -6657.11, -39474.34, -91020.57, -145240.78, -140374.72, 0.000, 0.000, 0.000, 17:04:07.261
35, -6600.67, -6685.45, -6720.52, -6659.50, -39476.51, -91022.58, -145242.55, -140376.14, 0.000, 0.000, 0.000, 17:04:07.262
36, -6602.08, -6686.41, -6721.08, -6660.13, -39477.02, -91022.94, -145242.69, -140376.27, 0.000, 0.000, 0.000, 17:04:07.262
37, -6600.40, -6685.03, -6720.14, -6659.19, -39476.29, -91022.05, -145241.77, -140375.48, 0.000, 0.000, 0.000, 17:04:07.262
38, -6596.02, -6681.54, -6717.28, -6656.28, -39473.94, -91019.45, -145239.44, -140373.22, 0.000, 0.000, 0.000, 17:04:07.262
39, -6595.93, -6681.41, -6717.24, -6656.15, -39473.98, -91019.09, -145239.16, -140372.91, 0.000, 0.000, 0.000, 17:04:07.262
40, -6598.15, -6682.86, -6717.95, -6656.93, -39474.34, -91019.32, -145238.97, -140372.59, 0.000, 0.000, 0.000, 17:04:07.262
41, -6599.91, -6684.18, -6718.93, -6657.96, -39475.28, -91020.15, -145239.55, -140372.95, 0.000, 0.000, 0.000, 17:04:07.262
42, -6599.26, -6683.93, -6719.09, -6658.16, -39475.70, -91020.37, -145239.86, -140373.36, 0.048, -0.002, 0.970, 17:04:07.263
43, -6592.20, -6677.74, -6713.55, -6652.68, -39470.63, -91015.09, -145234.80, -140368.44, 0.000, 0.000, 0.000, 17:04:07.263
44, -6591.84, -6677.32, -6713.21, -6652.21, -39470.34, -91014.42, -145234.23, -140367.75, 0.000, 0.000, 0.000, 17:04:07.263
45, -6598.03, -6682.66, -6717.97, -6656.82, -39474.70, -91018.63, -145238.03, -140371.45, 0.000, 0.000, 0.000, 17:04:07.263
46, -6600.49, -6684.62, -6719.65, -6658.63, -39476.29, -91020.13, -145239.33, -140372.61, 0.000, 0.000, 0.000, 17:04:07.263
47, -6596.83, -6681.14, -6716.56, -6655.63, -39473.52, -91017.10, -145236.42, -140369.78, 0.000, 0.000, 0.000, 17:04:07.263
48, -6592.20, -6677.34, -6713.35, -6652.37, -39470.81, -91014.24, -145233.77, -140367.31, 0.000, 0.000, 0.000, 17:04:07.264
49, -6591.28, -6676.51, -6712.54, -6651.48, -39470.07, -91013.22, -145232.78, -140366.17, 0.000, 0.000, 0.000, 17:04:07.264
50, -6595.31, -6679.77, -6715.13, -6654.16, -39472.38, -91015.38, -145234.45, -140367.78, 0.000, 0.000, 0.000, 17:04:07.264
51, -6597.72, -6681.74, -6716.72, -6655.81, -39473.98, -91016.79, -145235.63, -140369.00, 0.000, 0.000, 0.000, 17:04:07.264
52, -6595.75, -6680.09, -6715.49, -6654.58, -39473.00, -91015.59, -145234.45, -140367.92, 0.046, -0.004, 0.976, 17:04:07.264
53, -6592.65, -6677.85, -6713.88, -6653.09, -39471.91, -91014.20, -145233.36, -140366.95, 0.000, 0.000, 0.000, 17:04:07.264
54, -6593.03, -6678.23, -6714.26, -6653.49, -39472.40, -91014.31, -145233.52, -140366.95, 0.000, 0.000, 0.000, 17:04:07.264
55, -6596.58, -6680.96, -6716.27, -6655.39, -39474.16, -91015.83, -145234.66, -140368.02, 0.000, 0.000, 0.000, 17:04:07.265
56, -6597.72, -6681.70, -6716.83, -6655.88, -39474.50, -91016.05, -145234.67, -140367.98, 0.000, 0.000, 0.000, 17:04:07.265
57, -6595.91, -6680.33, -6715.74, -6654.94, -39473.76, -91015.16, -145233.88, -140367.28, 0.000, 0.000, 0.000, 17:04:07.265
58, -6590.28, -6675.33, -6711.45, -6650.74, -39469.94, -91011.14, -145230.05, -140363.56, 0.000, 0.000, 0.000, 17:04:07.265
59, -6591.04, -6676.20, -6712.27, -6651.48, -39470.77, -91011.67, -145230.61, -140363.97, 0.000, 0.000, 0.000, 17:04:07.265
60, -6595.82, -6680.20, -6715.51, -6654.70, -39473.83, -91014.63, -145233.06, -140366.20, 0.000, 0.000, 0.000, 17:04:07.265
61, -6597.05, -6680.98, -6716.07, -6655.16, -39474.30, -91014.89, -145233.19, -140366.22, 0.000, 0.000, 0.000, 17:04:07.266
62, -6595.04, -6679.30, -6714.78, -6653.80, -39473.29, -91013.59, -145231.95, -140365.19, 0.044, -0.004, 0.978, 17:04:07.266
63, -6591.06, -6676.15, -6712.25, -6651.36, -39471.30, -91011.31, -145229.89, -140363.31, 0.000, 0.000, 0.000, 17:04:07.266
64, -6593.92, -6678.92, -6714.98, -6654.07, -39474.14, -91013.87, -145232.44, -140365.84, 0.000, 0.000, 0.000, 17:04:07.266
65, -6597.39, -6681.54, -6716.92, -6655.90, -39475.77, -91015.32, -145233.50, -140366.72, 0.000, 0.000, 0.000, 17:04:07.266
66, -6599.04, -6682.88, -6717.88, -6656.89, -39476.71, -91016.13, -145234.08, -140367.14, 0.000, 0.000, 0.000, 17:04:07.266
67, -6597.30, -6681.52, -6716.90, -6656.06, -39476.00, -91015.20, -145233.30, -140366.36, 0.000, 0.000, 0.000, 17:04:07.266
68, -6593.38, -6678.34, -6714.35, -6653.60, -39474.01, -91012.92, -145231.14, -140364.48, 0.000, 0.000, 0.000, 17:04:07.267
69, -6595.55, -6680.49, -6716.50, -6655.61, -39476.15, -91014.83, -145232.88, -140366.25, 0.000, 0.000, 0.000, 17:04:07.267
70, -6599.58, -6683.75, -6719.09, -6658.16, -39478.36, -91016.91, -145234.70, -140367.81, 0.000, 0.000, 0.000, 17:04:07.267
71, -6600.78, -6684.60, -6719.60, -6658.72, -39478.90, -91017.24, -145234.86, -140367.86, 0.000, 0.000, 0.000, 17:04:07.267
72, -6599.04, -6683.19, -6718.60, -6657.73, -39478.25, -91016.28, -145233.98, -140367.14, 0.050, -0.006, 0.980, 17:04:07.267
73, -6595.49, -6680.40, -6716.50, -6655.72, -39476.67, -91014.45, -145232.38, -140365.58, 0.000, 0.000, 0.000, 17:04:07.268
74, -6594.48, -6679.35, -6715.40, -6654.65, -39475.55, -91013.10, -145231.03, -140364.19, 0.000, 0.000, 0.000, 17:04:07.268
75, -6599.11, -6683.13, -6718.62, -6657.65, -39478.34, -91015.79, -145233.36, -140366.36, 0.000, 0.000, 0.000, 17:04:07.268
76, -6602.08, -6685.79, -6720.88, -6659.99, -39480.67, -91017.91, -145235.17, -140368.22, 0.000, 0.000, 0.000, 17:04:07.268
77, -6597.54, -6681.79, -6717.10, -6656.37, -39477.25, -91014.31, -145231.69, -140364.80, 0.000, 0.000, 0.000, 17:04:07.268
78, -6593.52, -6678.41, -6714.51, -6653.78, -39475.10, -91011.78, -145229.50, -140362.69, 0.000, 0.000, 0.000, 17:04:07.268
79, -6594.81, -6679.64, -6715.72, -6654.92, -39476.29, -91012.81, -145230.36, -140363.56, 0.000, 0.000, 0.000, 17:04:07.269
80, -6597.70, -6681.74, -6717.19, -6656.35, -39477.43, -91013.75, -145231.02, -140364.06, 0.000, 0.000, 0.000, 17:04:07.269
81, -6599.42, -6683.13, -6718.26, -6657.42, -39478.50, -91014.65, -145231.70, -140364.69, 0.000, 0.000, 0.000, 17:04:07.269
82, -6596.76, -6680.96, -6716.43, -6655.61, -39476.98, -91012.88, -145230.09, -140363.05, 0.050, -0.002, 0.974, 17:04:07.269
83, -6593.18, -6678.14, -6714.33, -6653.47, -39475.37, -91011.02, -145228.33, -140361.44, 0.000, 0.000, 0.000, 17:04:07.269
84, -6596.29, -6681.03, -6717.30, -6656.35, -39478.23, -91013.71, -145230.83, -140363.94, 0.000, 0.000, 0.000, 17:04:07.269
85, -6598.26, -6682.17, -6717.75, -6656.73, -39478.34, -91013.62, -145230.48, -140363.41, 0.000, 0.000, 0.000, 17:04:07.269
86, -6599.55, -6683.08, -6718.42, -6657.31, -39478.92, -91014.09, -145230.75, -140363.61, 0.000, 0.000, 0.000, 17:04:07.270
87, -6596.87, -6680.98, -6716.63, -6655.59, -39477.47, -91012.41, -145229.14, -140362.09, 0.000, 0.000, 0.000, 17:04:07.270
88, -6594.79, -6679.66, -6715.96, -6655.05, -39477.36, -91012.03, -145229.03, -140362.05, 0.000, 0.000, 0.000, 17:04:07.270
89, -6597.18, -6681.81, -6718.15, -6657.18, -39479.53, -91013.93, -145230.83, -140363.83, 0.000, 0.000, 0.000, 17:04:07.270
90, -6601.77, -6685.50, -6721.19, -6660.19, -39482.21, -91016.45, -145233.00, -140365.80, 0.000, 0.000, 0.000, 17:04:07.734
91, -6602.77, -6686.23, -6721.66, -6660.66, -39482.57, -91016.57, -145233.05, -140365.73, 0.000, 0.000, 0.000, 17:04:07.734
92, -6602.35, -6686.26, -6722.06, -6660.98, -39483.30, -91017.06, -145233.61, -140366.41, 0.044, -0.002, 0.976, 17:04:07.734
93, -6597.52, -6682.25, -6718.67, -6657.67, -39480.42, -91013.87, -145230.55, -140363.70, 0.000, 0.000, 0.000, 17:04:07.734
94, -6597.59, -6682.21, -6718.49, -6657.49, -39480.27, -91013.51, -145230.16, -140363.08, 0.000, 0.000, 0.000, 17:04:07.734
95, -6601.43, -6685.16, -6720.90, -6659.72, -39482.23, -91015.32, -145231.73, -140364.41, 0.000, 0.000, 0.000, 17:04:07.734
96, -6601.83, -6685.23, -6720.70, -6659.61, -39481.94, -91014.89, -145231.06, -140363.81, 0.000, 0.000, 0.000, 17:04:07.734
97, -6596.76, -6680.62, -6716.45, -6655.50, -39478.05, -91010.80, -145227.02, -140359.83, 0.000, 0.000, 0.000, 17:04:07.735
98, -6591.84, -6676.51, -6713.03, -6652.13, -39475.13, -91007.49, -145224.05, -140356.97, 0.000, 0.000, 0.000, 17:04:07.735
99, -6593.81, -6678.50, -6714.80, -6653.89, -39476.96, -91009.13, -145225.56, -140358.38, 0.000, 0.000, 0.000, 17:04:07.735
100, -6599.17, -6683.04, -6718.64, -6657.71, -39480.58, -91012.57, -145228.55, -140361.22, 0.000, 0.000, 0.000, 17:04:07.735
101, -6598.30, -6681.81, -6717.17, -6656.33, -39479.08, -91010.84, -145226.75, -140359.27, 0.000, 0.000, 0.000, 17:04:07.735
102, -6594.90, -6678.92, -6714.62, -6653.91, -39476.89, -91008.50, -145224.44, -140357.14, 0.046, -0.004, 0.978, 17:04:07.735
103, -6589.88, -6674.61, -6710.93, -6650.29, -39473.70, -91005.05, -145221.22, -140354.13, 0.000, 0.000, 0.000, 17:04:07.735
104, -6591.06, -6675.59, -6711.94, -6651.10, -39474.54, -91005.62, -145221.80, -140354.53, 0.000, 0.000, 0.000, 17:04:07.736
105, -6595.13, -6678.97, -6714.53, -6653.71, -39476.84, -91007.88, -145223.64, -140356.17, 0.000, 0.000, 0.000, 17:04:07.736
106, -6596.16, -6679.77, -6715.07, -6654.27, -39477.36, -91008.16, -145223.77, -140356.19, 0.000, 0.000, 0.000, 17:04:07.736
107, -6593.63, -6677.74, -6713.39, -6652.71, -39476.13, -91006.71, -145222.39, -140355.03, 0.000, 0.000, 0.000, 17:04:07.736
108, -6591.33, -6676.22, -6712.54, -6651.86, -39475.70, -91006.04, -145221.92, -140354.67, 0.000, 0.000, 0.000, 17:04:07.736
109, -6592.96, -6677.65, -6713.90, -6653.04, -39476.98, -91007.02, -145222.67, -140355.41, 0.000, 0.000, 0.000, 17:04:07.736
110, -6596.94, -6680.76, -6716.43, -6655.50, -39479.15, -91008.97, -145224.38, -140356.95, 0.000, 0.000, 0.000, 17:04:07.736
111, -6598.21, -6681.67, -6717.06, -6656.24, -39479.86, -91009.53, -145224.67, -140357.27, 0.000, 0.000, 0.000, 17:04:07.737
112, -6596.71, -6680.73, -6716.52, -6655.81, -39479.66, -91009.13, -145224.39, -140357.14, 0.000, 0.000, 0.000, 17:04:07.737
113, -6594.52, -6679.30, -6715.67, -6655.01, -39479.35, -91008.41, -145224.02, -140356.83, 0.052, -0.004, 0.976, 17:04:07.737
114, -6594.79, -6679.46, -6715.63, -6654.87, -39479.19, -91008.08, -145223.50, -140356.25, 0.000, 0.000, 0.000, 17:04:07.737
115, -6597.27, -6681.18, -6716.56, -6655.75, -39479.86, -91008.68, -145223.55, -140356.13, 0.000, 0.000, 0.000, 17:04:07.737
116, -6598.86, -6682.41, -6717.55, -6656.84, -39480.85, -91009.51, -145224.33, -140356.83, 0.000, 0.000, 0.000, 17:04:07.737
117, -6596.02, -6680.13, -6715.72, -6655.01, -39479.35, -91007.72, -145222.77, -140355.36, 0.000, 0.000, 0.000, 17:04:07.737
118, -6590.43, -6675.37, -6711.63, -6650.85, -39475.77, -91003.91, -145219.09, -140351.78, 0.000, 0.000, 0.000, 17:04:07.738
119, -6590.84, -6675.39, -6711.51, -6650.69, -39475.57, -91003.52, -145218.58, -140351.09, 0.000, 0.000, 0.000, 17:04:07.738
120, -6595.26, -6679.10, -6714.49, -6653.62, -39478.16, -91005.91, -145220.59, -140353.06, 0.000, 0.000, 0.000, 17:04:07.738
121, -6595.64, -6679.33, -6714.37, -6653.64, -39478.05, -91005.73, -145220.23, -140352.64, 0.000, 0.000, 0.000, 17:04:07.738
122, -6594.95, -6679.06, -6714.60, -6653.96, -39478.68, -91006.11, -145220.78, -140353.17, 0.000, 0.000, 0.000, 17:04:07.738
123, -6592.49, -6677.43, -6713.55, -6652.97, -39477.98, -91005.13, -145220.03, -140352.61, 0.046, -0.004, 0.980, 17:04:07.738
124, -6591.89, -6676.62, -6712.65, -6651.90, -39477.02, -91003.91, -145218.58, -140351.20, 0.000, 0.000, 0.000, 17:04:07.738
125, -6594.37, -6678.28, -6713.57, -6652.75, -39477.79, -91004.38, -145218.73, -140351.16, 0.000, 0.000, 0.000, 17:04:07.738
126, -6597.50, -6681.20, -6716.21, -6655.52, -39480.42, -91006.89, -145221.14, -140353.45, 0.000, 0.000, 0.000, 17:04:07.739
127, -6596.58, -6680.73, -6716.16, -6655.66, -39480.82, -91007.00, -145221.33, -140353.84, 0.000, 0.000, 0.000, 17:04:07.739
128, -6591.71, -6676.73, -6712.79, -6652.19, -39477.80, -91003.76, -145218.36, -140350.94, 0.000, 0.000, 0.000, 17:04:07.739
129, -6592.92, -6677.76, -6713.59, -6652.91, -39478.52, -91004.27, -145218.81, -140351.22, 0.000, 0.000, 0.000, 17:04:07.739
130, -6596.36, -6680.35, -6715.45, -6654.83, -39480.18, -91005.68, -145219.88, -140352.16, 0.000, 0.000, 0.000, 17:04:07.739
131, -6595.44, -6679.26, -6714.11, -6653.42, -39478.72, -91004.19, -145218.08, -140350.39, 0.000, 0.000, 0.000, 17:04:07.739
132, -6593.07, -6677.47, -6712.72, -6652.08, -39477.71, -91003.02, -145216.97, -140349.44, 0.000, 0.000, 0.000, 17:04:07.739
133, -6588.31, -6673.49, -6709.39, -6648.75, -39474.77, -90999.78, -145213.95, -140346.52, 0.046, -0.008, 0.986, 17:04:07.740
134, -6590.05, -6674.92, -6710.66, -6649.96, -39476.00, -91000.63, -145214.70, -140347.14, 0.000, 0.000, 0.000, 17:04:07.740
135, -6595.33, -6679.24, -6714.37, -6653.69, -39479.48, -91004.05, -145217.77, -140350.00, 0.000, 0.000, 0.000, 17:04:07.740
136, -6596.40, -6680.20, -6715.07, -6654.40, -39480.13, -91004.43, -145218.16, -140350.38, 0.000, 0.000, 0.000, 17:04:07.740
137, -6594.10, -6678.48, -6713.75, -6653.24, -39479.24, -91003.27, -145217.13, -140349.44, 0.000, 0.000, 0.000, 17:04:07.740
138, -6590.23, -6675.37, -6711.29, -6650.74, -39477.20, -91000.99, -145215.02, -140347.53, 0.000, 0.000, 0.000, 17:04:07.740
139, -6592.22, -6677.16, -6712.77, -6652.21, -39478.68, -91002.13, -145216.17, -140348.52, 0.000, 0.000, 0.000, 17:04:07.740
140, -6599.22, -6683.35, -6718.42, -6657.71, -39483.84, -91007.23, -145220.78, -140353.02, 0.000, 0.000, 0.000, 17:04:07.741
141, -6599.71, -6683.60, -6718.51, -6657.76, -39484.00, -91007.23, -145220.64, -140352.75, 0.000, 0.000, 0.000, 17:04:07.741
142, -6593.56, -6678.03, -6713.32, -6652.59, -39479.15, -91002.27, -145215.69, -140347.97, 0.000, 0.000, 0.000, 17:04:07.741
143, -6589.99, -6675.19, -6710.95, -6650.38, -39477.25, -91000.19, -145213.73, -140346.17, 0.048, -0.004, 0.982, 17:04:07.741
144, -6590.81, -6675.77, -6711.36, -6650.63, -39477.56, -91000.12, -145213.67, -140345.97, 0.000, 0.000, 0.000, 17:04:07.741
145, -6593.07, -6677.23, -6712.21, -6651.41, -39478.07, -91000.41, -145213.59, -140345.73, 0.000, 0.000, 0.000, 17:04:07.741
146, -6593.70, -6677.56, -6712.39, -6651.63, -39478.36, -91000.50, -145213.67, -140345.64, 0.000, 0.000, 0.000, 17:04:07.742
147, -6592.38, -6676.69, -6712.03, -6651.36, -39478.34, -91000.25, -145213.59, -140345.81, 0.000, 0.000, 0.000, 17:04:07.742
148, -6586.84, -6671.88, -6707.85, -6647.07, -39474.54, -90996.23, -145209.67, -140342.00, 0.000, 0.000, 0.000, 17:04:07.742
149, -6588.76, -6673.58, -6709.28, -6648.50, -39476.00, -90997.44, -145210.58, -140342.75, 0.000, 0.000, 0.000, 17:04:07.742
150, -6594.79, -6678.77, -6713.70, -6653.09, -39480.24, -91001.52, -145214.41, -140346.28, 0.000, 0.000, 0.000, 17:04:07.742
151, -6597.23, -6680.91, -6715.78, -6655.14, -39482.16, -91003.29, -145216.13, -140347.98, 0.000, 0.000, 0.000, 17:04:07.742
152, -6594.52, -6678.95, -6714.24, -6653.69, -39480.93, -91001.81, -145214.88, -140346.91, 0.000, 0.000, 0.000, 17:04:07.743
153, -6590.32, -6675.50, -6711.38, -6650.74, -39478.43, -90999.02, -145212.33, -140344.50, 0.050, -0.004, 0.982, 17:04:07.744
154, -6591.69, -6676.49, -6712.14, -6651.34, -39479.13, -90999.56, -145212.55, -140344.72, 0.000, 0.000, 0.000, 17:04:07.744
155, -6595.24, -6679.24, -6714.29, -6653.53, -39481.09, -91001.34, -145214.00, -140345.86, 0.000, 0.000, 0.000, 17:04:07.744
156, -6594.19, -6678.05, -6712.92, -6652.19, -39479.68, -90999.72, -145212.27, -140344.00, 0.000, 0.000, 0.000, 17:04:07.744
157, -6591.82, -6676.29, -6711.49, -6650.85, -39478.61, -90998.46, -145211.03, -140343.16, 0.000, 0.000, 0.000, 17:04:07.744
158, -6586.41, -6671.57, -6707.36, -6646.67, -39474.95, -90994.44, -145207.20, -140339.53, 0.000, 0.000, 0.000, 17:04:07.744
159, -6586.86, -6671.71, -6707.33, -6646.49, -39474.86, -90994.09, -145206.63, -140338.80, 0.000, 0.000, 0.000, 17:04:07.744
160, -6591.53, -6675.53, -6710.57, -6649.62, -39477.70, -90996.92, -145209.09, -140340.97, 0.000, 0.000, 0.000, 17:04:07.745
161, -6590.79, -6674.59, -6709.41, -6648.62, -39476.62, -90995.67, -145207.80, -140339.64, 0.000, 0.000, 0.000, 17:04:07.745
162, -6588.98, -6673.38, -6708.63, -6647.94, -39476.31, -90995.05, -145207.30, -140339.36, 0.000, 0.000, 0.000, 17:04:07.745
163, -6585.87, -6670.90, -6706.84, -6646.16, -39474.86, -90993.32, -145205.88, -140337.92, 0.046, -0.002, 0.984, 17:04:07.745
164, -6585.58, -6670.25, -6705.99, -6645.26, -39473.83, -90992.09, -145204.45, -140336.36, 0.000, 0.000, 0.000, 17:04:07.745
165, -6588.20, -6672.02, -6707.00, -6646.25, -39474.66, -90992.72, -145204.77, -140336.36, 0.000, 0.000, 0.000, 17:04:07.745
166, -6589.32, -6673.02, -6707.83, -6647.07, -39475.50, -90993.39, -145205.31, -140336.98, 0.000, 0.000, 0.000, 17:04:07.745
167, -6586.23, -6670.63, -6705.88, -6645.35, -39474.05, -90991.69, -145203.75, -140335.58, 0.000, 0.000, 0.000, 17:04:07.746
168, -6582.75, -6667.66, -6703.56, -6643.03, -39472.17, -90989.45, -145201.70, -140333.72, 0.000, 0.000, 0.000, 17:04:07.746
169, -6583.13, -6667.77, -6703.38, -6642.71, -39471.86, -90988.90, -145201.00, -140332.81, 0.000, 0.000, 0.000, 17:04:07.746
170, -6585.99, -6669.89, -6704.81, -6644.19, -39473.05, -90989.95, -145201.63, -140333.34, 0.000, 0.000, 0.000, 17:04:07.746
171, -6587.37, -6671.12, -6705.93, -6645.31, -39474.21, -90990.88, -145202.50, -140334.22, 0.000, 0.000, 0.000, 17:04:07.746
172, -6585.65, -6670.07, -6705.21, -6644.70, -39473.87, -90990.46, -145202.17, -140333.98, 0.000, 0.000, 0.000, 17:04:07.746
173, -6581.90, -6667.01, -6702.73, -6642.25, -39471.82, -90988.09, -145199.98, -140331.98, 0.046, 0.000, 0.982, 17:04:07.746
174, -6583.82, -6668.69, -6704.16, -6643.43, -39473.11, -90989.01, -145200.77, -140332.56, 0.000, 0.000, 0.000, 17:04:07.747
175, -6587.22, -6671.26, -6706.17, -6645.35, -39474.74, -90990.57, -145201.94, -140333.52, 0.000, 0.000, 0.000, 17:04:07.747
176, -6591.33, -6675.21, -6710.04, -6649.33, -39478.63, -90994.30, -145205.55, -140337.13, 0.000, 0.000, 0.000, 17:04:07.747
177, -6587.51, -6671.93, -6707.22, -6646.67, -39476.22, -90991.69, -145203.23, -140334.94, 0.000, 0.000, 0.000, 17:04:07.747
178, -6583.06, -6668.22, -6704.05, -6643.43, -39473.38, -90988.63, -145200.38, -140332.19, 0.000, 0.000, 0.000, 17:04:07.747
179, -6585.36, -6670.23, -6705.72, -6645.06, -39474.97, -90989.97, -145201.47, -140333.19, 0.000, 0.000, 0.000, 17:04:07.747
180, -6588.15, -6672.42, -6707.13, -6646.47, -39476.24, -90991.00, -145202.14, -140333.67, 0.000, 0.000, 0.000, 17:04:07.747
181, -6586.57, -6670.61, -6705.23, -6644.53, -39474.32, -90988.90, -145199.98, -140331.53, 0.000, 0.000, 0.000, 17:04:07.748
182, -6585.14, -6669.67, -6704.76, -6644.15, -39474.36, -90988.70, -145199.92, -140331.64, 0.000, 0.000, 0.000, 17:04:07.748
183, -6583.95, -6669.11, -6704.74, -6644.17, -39474.83, -90988.83, -145200.25, -140332.06, 0.048, -0.002, 0.982, 17:04:07.748
184, -6586.79, -6671.57, -6706.93, -6646.25, -39476.91, -90990.55, -145201.89, -140333.55, 0.000, 0.000, 0.000, 17:04:07.748
185, -6588.31, -6672.42, -6707.15, -6646.45, -39476.89, -90990.30, -145201.33, -140332.77, 0.000, 0.000, 0.000, 17:04:07.748
186, -6588.00, -6671.95, -6706.55, -6645.93, -39476.31, -90989.75, -145200.44, -140331.98, 0.000, 0.000, 0.000, 17:04:07.748
187, -6584.98, -6669.56, -6704.65, -6644.12, -39474.79, -90988.02, -145198.92, -140330.55, 0.000, 0.000, 0.000, 17:04:07.748
188, -6584.02, -6669.29, -6704.99, -6644.41, -39475.39, -90988.43, -145199.50, -140331.27, 0.000, 0.000, 0.000, 17:04:07.748
189, -6584.06, -6668.80, -6704.23, -6643.54, -39474.45, -90987.27, -145198.17, -140329.75, 0.000, 0.000, 0.000, 17:04:07.749
190, -6587.42, -6671.37, -6706.22, -6645.44, -39476.20, -90988.77, -145199.31, -140330.75, 0.000, 0.000, 0.000, 17:04:07.749
191, -6589.09, -6672.93, -6707.74, -6646.98, -39477.83, -90990.08, -145200.56, -140332.03, 0.000, 0.000, 0.000, 17:04:07.749
192, -6587.48, -6672.00, -6707.18, -6646.60, -39477.80, -90989.92, -145200.53, -140332.00, 0.000, 0.000, 0.000, 17:04:07.749
193, -6583.24, -6668.44, -6704.14, -6643.65, -39475.21, -90987.00, -145197.80, -140329.44, 0.054, -0.002, 0.982, 17:04:07.749
194, -6585.54, -6670.32, -6705.75, -6645.17, -39476.55, -90988.23, -145198.78, -140330.44, 0.000, 0.000, 0.000, 17:04:07.749
195, -6587.53, -6671.57, -6706.24, -6645.60, -39476.84, -90988.38, -145198.64, -140329.92, 0.000, 0.000, 0.000, 17:04:07.749
196, -6585.78, -6669.81, -6704.43, -6643.70, -39474.99, -90986.33, -145196.50, -140327.63, 0.000, 0.000, 0.000, 17:04:07.750
197, -6581.63, -6666.32, -6701.48, -6640.79, -39472.42, -90983.48, -145193.89, -140325.09, 0.000, 0.000, 0.000, 17:04:07.750
198, -6581.85, -6667.21, -6702.75, -6642.18, -39474.21, -90984.96, -145195.45, -140326.86, 0.000, 0.000, 0.000, 17:04:07.750
199, -6582.45, -6667.44, -6702.48, -6641.89, -39473.80, -90984.38, -145194.67, -140325.95, 0.000, 0.000, 0.000, 17:04:07.750
200, -6585.32, -6669.58, -6704.00, -6643.43, -39475.01, -90985.50, -145195.50, -140326.69, 0.000, 0.000, 0.000, 17:04:07.750
201, -6588.11, -6672.26, -6706.62, -6646.09, -39477.74, -90988.00, -145197.86, -140329.03, 0.000, 0.000, 0.000, 17:04:07.750
202, -6584.24, -6669.11, -6704.00, -6643.47, -39475.46, -90985.52, -145195.52, -140326.86, 0.000, 0.000, 0.000, 17:04:07.751
203, -6579.55, -6665.07, -6700.49, -6639.94, -39472.31, -90982.13, -145192.28, -140323.70, 0.000, 0.000, 0.000, 17:04:07.751
204, -6582.70, -6667.68, -6702.82, -6642.13, -39474.48, -90984.02, -145194.05, -140325.30, 0.050, 0.002, 0.976, 17:04:07.751
205, -6588.67, -6672.91, -6707.42, -6646.67, -39478.75, -90988.09, -145197.80, -140328.81, 0.000, 0.000, 0.000, 17:04:07.751
206, -6592.09, -6676.42, -6710.80, -6650.11, -39482.21, -90991.29, -145200.92, -140332.00, 0.000, 0.000, 0.000, 17:04:07.751
207, -6587.64, -6672.42, -6707.45, -6646.78, -39479.28, -90988.16, -145197.95, -140329.20, 0.000, 0.000, 0.000, 17:04:07.751
208, -6584.31, -6669.74, -6705.14, -6644.68, -39477.40, -90986.13, -145196.02, -140327.33, 0.000, 0.000, 0.000, 17:04:07.751
209, -6585.52, -6670.56, -6705.61, -6645.15, -39477.71, -90986.10, -145195.88, -140326.97, 0.000, 0.000, 0.000, 17:04:07.752
210, -6588.60, -6673.00, -6707.38, -6646.76, -39479.21, -90987.45, -145196.86, -140327.73, 0.000, 0.000, 0.000, 17:04:08.216
211, -6587.77, -6672.11, -6706.46, -6645.87, -39478.30, -90986.38, -145195.66, -140326.45, 0.000, 0.000, 0.000, 17:04:08.216
212, -6586.08, -6671.08, -6705.99, -6645.49, -39478.36, -90986.26, -145195.72, -140326.73, 0.000, 0.000, 0.000, 17:04:08.216
213, -6584.18, -6669.69, -6705.03, -6644.77, -39477.85, -90985.55, -145195.08, -140326.11, 0.000, 0.000, 0.000, 17:04:08.216
214, -6585.07, -6670.30, -6705.17, -6644.79, -39477.76, -90985.23, -145194.52, -140325.47, 0.054, -0.002, 0.974, 17:04:08.216
215, -6589.54, -6674.07, -6708.34, -6647.90, -39480.64, -90987.89, -145196.97, -140327.73, 0.000, 0.000, 0.000, 17:04:08.216
216, -6588.00, -6672.38, -6706.66, -6646.20, -39478.95, -90986.08, -145194.95, -140325.83, 0.000, 0.000, 0.000, 17:04:08.217
217, -6583.10, -6668.06, -6702.82, -6642.51, -39475.62, -90982.52, -145191.58, -140322.61, 0.000, 0.000, 0.000, 17:04:08.217
218, -6580.76, -6666.30, -6701.52, -6641.33, -39474.72, -90981.41, -145190.59, -140321.77, 0.000, 0.000, 0.000, 17:04:08.217
219, -6583.66, -6668.80, -6703.65, -6643.30, -39476.62, -90982.95, -145192.08, -140322.95, 0.000, 0.000, 0.000, 17:04:08.217
220, -6586.52, -6670.99, -6705.12, -6644.82, -39477.89, -90984.05, -145192.86, -140323.52, 0.000, 0.000, 0.000, 17:04:08.217
221, -6587.71, -6672.13, -6706.28, -6646.00, -39479.04, -90985.08, -145193.84, -140324.45, 0.000, 0.000, 0.000, 17:04:08.217
222, -6585.49, -6670.68, -6705.34, -6645.08, -39478.54, -90984.25, -145193.27, -140324.14, 0.000, 0.000, 0.000, 17:04:08.218
223, -6584.24, -6669.85, -6705.01, -6644.77, -39478.68, -90984.00, -145193.16, -140324.16, 0.000, 0.000, 0.000, 17:04:08.218
224, -6587.53, -6672.58, -6707.45, -6647.05, -39480.85, -90985.95, -145194.94, -140325.83, 0.052, 0.002, 0.974, 17:04:08.218
225, -6594.08, -6678.52, -6712.81, -6652.39, -39485.85, -90990.88, -145199.56, -140330.27, 0.000, 0.000, 0.000, 17:04:08.218
226, -6597.52, -6681.88, -6716.07, -6655.81, -39489.34, -90994.20, -145202.72, -140333.30, 0.000, 0.000, 0.000, 17:04:08.218
227, -6592.20, -6677.16, -6711.94, -6651.70, -39485.68, -90990.33, -145198.88, -140329.77, 0.000, 0.000, 0.000, 17:04:08.219
228, -6585.87, -6671.39, -6706.73, -6646.45, -39480.76, -90985.19, -145193.89, -140324.89, 0.000, 0.000, 0.000, 17:04:08.219
229, -6586.59, -6671.57, -6706.57, -6646.11, -39480.33, -90984.65, -145193.00, -140323.83, 0.000, 0.000, 0.000, 17:04:08.219
230, -6590.05, -6674.32, -6708.72, -6648.33, -39482.21, -90986.38, -145194.41, -140325.03, 0.000, 0.000, 0.000, 17:04:08.220
231, -6592.18, -6676.38, -6710.82, -6650.45, -39484.47, -90988.31, -145196.33, -140326.97, 0.000, 0.000, 0.000, 17:04:08.220
232, -6589.65, -6674.52, -6709.39, -6649.22, -39483.53, -90987.09, -145195.30, -140326.14, 0.000, 0.000, 0.000, 17:04:08.220
233, -6588.04, -6673.47, -6708.81, -6648.77, -39483.21, -90986.64, -145194.95, -140325.91, 0.000, 0.000, 0.000, 17:04:08.220
234, -6590.34, -6675.26, -6710.22, -6650.02, -39484.36, -90987.51, -145195.61, -140326.50, 0.052, 0.000, 0.980, 17:04:08.220
235, -6594.77, -6678.97, -6713.37, -6653.04, -39487.20, -90990.23, -145197.98, -140328.72, 0.000, 0.000, 0.000, 17:04:08.220
236, -6594.08, -6678.25, -6712.63, -6652.28, -39486.57, -90989.34, -145197.08, -140327.73, 0.000, 0.000, 0.000, 17:04:08.220
237, -6587.71, -6672.67, -6707.56, -6647.39, -39481.83, -90984.47, -145192.44, -140323.17, 0.000, 0.000, 0.000, 17:04:08.220
238, -6584.26, -6669.85, -6705.10, -6644.99, -39479.82, -90982.13, -145190.25, -140321.05, 0.000, 0.000, 0.000, 17:04:08.220
239, -6587.42, -6672.44, -6707.29, -6647.01, -39481.72, -90983.84, -145191.63, -140322.41, 0.000, 0.000, 0.000, 17:04:08.220
240, -6589.76, -6674.10, -6708.41, -6648.10, -39482.61, -90984.56, -145192.03, -140322.69, 0.000, 0.000, 0.000, 17:04:08.221
241, -6589.88, -6674.10, -6708.47, -6648.26, -39482.77, -90984.56, -145191.94, -140322.50, 0.000, 0.000, 0.000, 17:04:08.221
242, -6587.55, -6672.55, -6707.56, -6647.36, -39482.28, -90983.80, -145191.42, -140322.09, 0.000, 0.000, 0.000, 17:04:08.221
243, -6581.60, -6667.21, -6702.57, -6642.36, -39477.67, -90978.86, -145186.67, -140317.39, 0.000, 0.000, 0.000, 17:04:08.222
244, -6586.30, -6671.35, -6706.28, -6645.98, -39481.11, -90982.15, -145189.70, -140320.20, 0.044, -0.002, 0.978, 17:04:08.222
245, -6588.82, -6673.11, -6707.45, -6647.12, -39481.96, -90982.88, -145190.13, -140320.47, 0.000, 0.000, 0.000, 17:04:08.222
246, -6589.74, -6673.98, -6708.34, -6648.03, -39482.99, -90983.69, -145190.89, -140321.23, 0.000, 0.000, 0.000, 17:04:08.222
247, -6585.02, -6670.10, -6705.01, -6644.82, -39480.13, -90980.52, -145187.98, -140318.44, 0.000, 0.000, 0.000, 17:04:08.222
248, -6581.60, -6667.19, -6702.64, -6642.42, -39478.05, -90978.26, -145185.73, -140316.30, 0.000, 0.000, 0.000, 17:04:08.222
249, -6586.32, -6671.32, -6706.37, -6646.00, -39481.58, -90981.52, -145188.75, -140319.16, 0.000, 0.000, 0.000, 17:04:08.222
250, -6590.50, -6674.81, -6709.19, -6648.86, -39484.18, -90984.02, -145190.88, -140321.20, 0.000, 0.000, 0.000, 17:04:08.222
251, -6593.59, -6678.03, -6712.30, -6652.06, -39487.46, -90986.95, -145193.86, -140324.17, 0.000, 0.000, 0.000, 17:04:08.223
252, -6589.67, -6674.77, -6709.68, -6649.40, -39485.34, -90984.56, -145191.61, -140322.14, 0.000, 0.000, 0.000, 17:04:08.223
253, -6583.64, -6669.11, -6704.52, -6644.17, -39480.42, -90979.35, -145186.58, -140317.11, 0.000, 0.000, 0.000, 17:04:08.223
254, -6584.87, -6669.78, -6704.81, -6644.37, -39480.38, -90979.13, -145186.16, -140316.47, 0.046, -0.002, 0.978, 17:04:08.223
255, -6589.36, -6673.60, -6707.94, -6647.48, -39483.28, -90981.97, -145188.64, -140318.80, 0.000, 0.000, 0.000, 17:04:08.223
0, -6588.44, -6672.64, -6707.04, -6646.54, -39482.48, -90981.01, -145187.56, -140317.78, 0.000, 0.000, 0.000, 17:04:08.223
1, -6583.04, -6668.02, -6702.98, -6642.58, -39478.81, -90977.03, -145183.84, -140314.34, 0.000, 0.000, 0.000, 17:04:08.224
2, -6582.45, -6667.99, -6703.33, -6643.03, -39479.57, -90977.66, -145184.45, -140315.06, 0.000, 0.000, 0.000, 17:04:08.224
3, -6587.08, -6672.04, -6706.91, -6646.54, -39482.90, -90980.80, -145187.34, -140317.63, 0.000, 0.000, 0.000, 17:04:08.224
4, -6588.71, -6672.93, -6707.24, -6646.78, -39482.95, -90980.65, -145186.91, -140316.95, 0.000, 0.000, 0.000, 17:04:08.224
5, -6586.48, -6670.61, -6705.08, -6644.55, -39480.76, -90978.26, -145184.61, -140314.72, 0.000, 0.000, 0.000, 17:04:08.224
6, -6582.95, -6667.86, -6702.89, -6642.54, -39479.15, -90976.31, -145182.89, -140313.19, 0.000, 0.000, 0.000, 17:04:08.224
7, -6580.71, -6666.16, -6701.61, -6641.31, -39478.12, -90975.04, -145181.66, -140312.09, 0.000, 0.000, 0.000, 17:04:08.224
8, -6584.51, -6669.45, -6704.43, -6643.90, -39480.58, -90977.38, -145183.63, -140313.97, 0.048, 0.000, 0.970, 17:04:08.224
9, -6591.10, -6675.30, -6709.70, -6649.06, -39485.63, -90982.21, -145188.23, -140318.38, 0.000, 0.000, 0.000, 17:04:08.225
10, -6591.91, -6676.11, -6710.57, -6650.00, -39486.57, -90983.02, -145189.03, -140319.19, 0.000, 0.000, 0.000, 17:04:08.225
11, -6587.80, -6672.82, -6707.87, -6647.45, -39484.38, -90980.59, -145186.83, -140317.23, 0.000, 0.000, 0.000, 17:04:08.225
12, -6585.61, -6671.15, -6706.55, -6646.09, -39483.39, -90979.29, -145185.59, -140316.00, 0.000, 0.000, 0.000, 17:04:08.225
13, -6588.11, -6673.02, -6707.96, -6647.34, -39484.51, -90980.23, -145186.16, -140316.41, 0.000, 0.000, 0.000, 17:04:08.225
14, -6589.70, -6673.98, -6708.32, -6647.72, -39484.71, -90980.23, -145185.80, -140315.91, 0.000, 0.000, 0.000, 17:04:08.225
15, -6591.24, -6675.59, -6709.86, -6649.38, -39486.46, -90981.72, -145187.25, -140317.41, 0.000, 0.000, 0.000, 17:04:08.226
16, -6585.92, -6671.08, -6705.93, -6645.55, -39482.99, -90978.03, -145183.67, -140313.98, 0.000, 0.000, 0.000, 17:04:08.226
17, -6583.30, -6668.96, -6704.14, -6643.70, -39481.47, -90976.31, -145182.08, -140312.41, 0.000, 0.000, 0.000, 17:04:08.226
18, -6585.76, -6670.86, -6705.57, -6645.11, -39482.63, -90977.27, -145182.89, -140312.95, 0.044, 0.002, 0.976, 17:04:08.226
19, -6588.53, -6672.96, -6707.02, -6646.60, -39483.98, -90978.34, -145183.69, -140313.73, 0.000, 0.000, 0.000, 17:04:08.226
20, -6589.72, -6674.32, -6708.34, -6648.06, -39485.47, -90979.66, -145184.97, -140314.97, 0.000, 0.000, 0.000, 17:04:08.226
21, -6586.23, -6671.48, -6706.22, -6645.93, -39483.73, -90977.66, -145183.11, -140313.34, 0.000, 0.000, 0.000, 17:04:08.226
22, -6582.99, -6668.69, -6703.89, -6643.52, -39481.63, -90975.27, -145180.91, -140311.08, 0.000, 0.000, 0.000, 17:04:08.227
23, -6585.32, -6670.41, -6705.05, -6644.64, -39482.59, -90976.09, -145181.33, -140311.38, 0.000, 0.000, 0.000, 17:04:08.227
24, -6586.59, -6671.03, -6705.17, -6644.66, -39482.46, -90975.80, -145180.81, -140310.66, 0.000, 0.000, 0.000, 17:04:08.227
25, -6585.83, -6670.30, -6704.54, -6644.03, -39481.85, -90975.02, -145180.03, -140310.03, 0.000, 0.000, 0.000, 17:04:08.227
26, -6582.79, -6668.06, -6702.84, -6642.47, -39480.60, -90973.54, -145178.78, -140308.91, 0.000, 0.000, 0.000, 17:04:08.227
27, -6580.76, -6666.54, -6701.63, -6641.26, -39479.77, -90972.40, -145177.70, -140307.91, 0.000, 0.000, 0.000, 17:04:08.227
28, -6584.06, -6669.22, -6703.89, -6643.36, -39481.70, -90974.10, -145179.14, -140309.16, 0.046, 0.000, 0.980, 17:04:08.227
29, -6587.37, -6671.82, -6705.95, -6645.40, -39483.50, -90975.89, -145180.59, -140310.44, 0.000, 0.000, 0.000, 17:04:08.228
30, -6585.67, -6670.27, -6704.45, -6643.85, -39482.14, -90974.23, -145178.95, -140308.80, 0.000, 0.000, 0.000, 17:04:08.228
31, -6583.30, -6668.73, -6703.53, -6642.96, -39481.72, -90973.54, -145178.53, -140308.44, 0.000, 0.000, 0.000, 17:04:08.228
32, -6583.50, -6669.29, -6704.54, -6643.92, -39482.93, -90974.46, -145179.53, -140309.58, 0.000, 0.000, 0.000, 17:04:08.228
33, -6587.53, -6672.58, -6707.42, -6646.67, -39485.50, -90976.83, -145181.70, -140311.50, 0.000, 0.000, 0.000, 17:04:08.228
34, -6589.81, -6674.14, -6708.45, -6647.77, -39486.34, -90977.61, -145182.11, -140311.81, 0.000, 0.000, 0.000, 17:04:08.228
35, -6590.01, -6674.68, -6708.85, -6648.33, -39486.84, -90978.05, -145182.38, -140312.22, 0.000, 0.000, 0.000, 17:04:08.228
36, -6584.51, -6670.01, -6704.79, -6644.30, -39483.19, -90974.08, -145178.73, -140308.69, 0.000, 0.000, 0.000, 17:04:08.229
37, -6579.82, -6665.58, -6700.76, -6640.28, -39479.41, -90970.01, -145174.83, -140304.67, 0.000, 0.000, 0.000, 17:04:08.229
38, -6581.67, -6666.79, -6701.48, -6640.86, -39479.86, -90970.26, -145174.78, -140304.44, 0.000, 0.000, 0.000, 17:04:08.229
39, -6584.80, -6669.25, -6703.49, -6642.87, -39481.70, -90971.80, -145176.03, -140305.63, 0.044, -0.002, 0.976, 17:04:08.229
40, -6588.00, -6672.58, -6706.80, -6646.16, -39485.16, -90975.13, -145179.41, -140309.05, 0.000, 0.000, 0.000, 17:04:08.229
41, -6587.42, -6672.76, -6707.47, -6647.14, -39486.43, -90976.24, -145180.70, -140310.52, 0.000, 0.000, 0.000, 17:04:08.229
42, -6585.05, -6670.74, -6705.88, -6645.53, -39485.05, -90974.63, -145179.16, -140308.98, 0.000, 0.000, 0.000, 17:04:08.229
43, -6585.63, -6670.65, -6705.41, -6644.79, -39484.18, -90973.59, -145177.75, -140307.30, 0.000, 0.000, 0.000, 17:04:08.230
44, -6587.68, -6672.15, -6706.40, -6645.67, -39484.94, -90974.15, -145178.11, -140307.59, 0.000, 0.000, 0.000, 17:04:08.230
45, -6586.37, -6670.86, -6705.21, -6644.57, -39483.93, -90972.80, -145176.78, -140306.36, 0.000, 0.000, 0.000, 17:04:08.230
46, -6581.87, -6667.17, -6702.10, -6641.46, -39481.27, -90969.90, -145174.17, -140303.81, 0.000, 0.000, 0.000, 17:04:08.230
47, -6580.08, -6665.74, -6701.10, -6640.39, -39480.45, -90968.83, -145173.09, -140302.88, 0.000, 0.000, 0.000, 17:04:08.230
48, -6583.91, -6668.84, -6703.71, -6642.94, -39482.77, -90970.91, -145174.75, -140304.52, 0.000, 0.000, 0.000, 17:04:08.231
49, -6586.99, -6671.41, -6705.66, -6645.04, -39484.51, -90972.54, -145176.23, -140305.73, 0.050, 0.000, 0.974, 17:04:08.234
50, -6586.08, -6670.70, -6704.99, -6644.44, -39483.95, -90971.95, -145175.61, -140305.25, 0.000, 0.000, 0.000, 17:04:08.234
51, -6581.72, -6667.15, -6702.08, -6641.51, -39481.56, -90969.27, -145173.13, -140302.88, 0.000, 0.000, 0.000, 17:04:08.234
52, -6578.83, -6664.66, -6699.94, -6639.29, -39479.64, -90967.04, -145170.84, -140300.70, 0.000, 0.000, 0.000, 17:04:08.234
53, -6580.96, -6666.09, -6700.81, -6640.12, -39480.18, -90967.40, -145170.94, -140300.64, 0.000, 0.000, 0.000, 17:04:08.235
54, -6585.32, -6669.96, -6704.09, -6643.39, -39483.24, -90970.28, -145173.61, -140303.13, 0.000, 0.000, 0.000, 17:04:08.235
55, -6586.86, -6671.53, -6705.77, -6645.15, -39485.23, -90972.00, -145175.31, -140304.83, 0.000, 0.000, 0.000, 17:04:08.235
56, -6583.77, -6669.22, -6704.20, -6643.61, -39484.04, -90970.59, -145174.22, -140303.84, 0.000, 0.000, 0.000, 17:04:08.235
57, -6580.62, -6666.41, -6701.75, -6641.06, -39481.79, -90968.18, -145171.77, -140301.47, 0.000, 0.000, 0.000, 17:04:08.236
58, -6581.23, -6666.32, -6701.12, -6640.35, -39480.82, -90967.04, -145170.27, -140299.80, 0.000, 0.000, 0.000, 17:04:08.236
59, -6584.51, -6669.04, -6703.31, -6642.67, -39482.86, -90968.91, -145171.83, -140301.25, 0.050, -0.002, 0.978, 17:04:08.236
60, -6585.09, -6669.65, -6704.14, -6643.45, -39483.82, -90969.65, -145172.70, -140302.14, 0.000, 0.000, 0.000, 17:04:08.237
61, -6580.87, -6666.21, -6701.28, -6640.57, -39481.49, -90966.95, -145170.31, -140299.81, 0.000, 0.000, 0.000, 17:04:08.237
62, -6580.73, -6666.45, -6701.88, -6641.13, -39482.30, -90967.53, -145170.94, -140300.47, 0.000, 0.000, 0.000, 17:04:08.237
63, -6585.74, -6670.86, -6705.57, -6644.84, -39485.74, -90970.91, -145173.84, -140303.23, 0.000, 0.000, 0.000, 17:04:08.237
64, -6586.34, -6670.74, -6705.01, -6644.32, -39485.05, -90969.97, -145172.70, -140301.98, 0.000, 0.000, 0.000, 17:04:08.238
65, -6582.57, -6667.12, -6701.57, -6640.88, -39481.72, -90966.32, -145169.14, -140298.56, 0.000, 0.000, 0.000, 17:04:08.238
66, -6579.41, -6664.78, -6699.73, -6639.23, -39480.38, -90964.80, -145167.89, -140297.36, 0.000, 0.000, 0.000, 17:04:08.238
67, -6580.13, -6665.87, -6701.10, -6640.64, -39481.94, -90966.16, -145169.41, -140298.81, 0.000, 0.000, 0.000, 17:04:08.238
68, -6585.47, -6670.63, -6705.41, -6644.66, -39485.81, -90969.85, -145172.77, -140302.00, 0.000, 0.000, 0.000, 17:04:08.238
69, -6586.37, -6670.92, -6705.23, -6644.53, -39485.45, -90969.30, -145171.92, -140301.05, 0.048, -0.004, 0.980, 17:04:08.238
70, -6583.84, -6668.46, -6702.89, -6642.38, -39483.35, -90967.04, -145169.56, -140298.78, 0.000, 0.000, 0.000, 17:04:08.238
71, -6580.06, -6665.42, -6700.65, -6640.08, -39481.49, -90964.98, -145167.67, -140297.14, 0.000, 0.000, 0.000, 17:04:08.239
72, -6580.85, -6666.54, -6701.99, -6641.46, -39483.08, -90966.26, -145169.09, -140298.47, 0.000, 0.000, 0.000, 17:04:08.239
73, -6584.40, -6669.34, -6704.34, -6643.65, -39485.09, -90968.04, -145170.58, -140299.75, 0.000, 0.000, 0.000, 17:04:08.239
74, -6587.30, -6671.64, -6706.17, -6645.44, -39486.77, -90969.48, -145171.80, -140300.78, 0.000, 0.000, 0.000, 17:04:08.696
75, -6585.85, -6670.59, -6705.12, -6644.46, -39485.83, -90968.38, -145170.81, -140299.77, 0.000, 0.000, 0.000, 17:04:08.697
76, -6581.27, -6666.79, -6701.92, -6641.28, -39483.13, -90965.49, -145168.09, -140297.25, 0.000, 0.000, 0.000, 17:04:08.697
77, -6579.06, -6664.78, -6700.23, -6639.52, -39481.74, -90963.80, -145166.47, -140295.59, 0.000, 0.000, 0.000, 17:04:08.697
78, -6583.10, -6668.17, -6703.02, -6642.31, -39484.15, -90966.03, -145168.30, -140297.41, 0.000, 0.000, 0.000, 17:04:08.697
79, -6586.48, -6671.01, -6705.37, -6644.66, -39486.28, -90968.00, -145170.02, -140299.03, 0.048, -0.006, 0.976, 17:04:08.697
80, -6586.57, -6671.32, -6705.84, -6645.11, -39486.84, -90968.42, -145170.47, -140299.45, 0.000, 0.000, 0.000, 17:04:08.697
81, -6581.94, -6667.46, -6702.57, -6642.00, -39484.18, -90965.45, -145167.69, -140296.80, 0.000, 0.000, 0.000, 17:04:08.697
82, -6578.95, -6664.73, -6700.18, -6639.54, -39481.83, -90962.95, -145165.20, -140294.47, 0.000, 0.000, 0.000, 17:04:08.698
83, -6581.25, -6666.39, -6701.14, -6640.41, -39482.52, -90963.46, -145165.45, -140294.58, 0.000, 0.000, 0.000, 17:04:08.698
84, -6584.73, -6669.45, -6703.67, -6642.87, -39484.85, -90965.59, -145167.33, -140296.42, 0.000, 0.000, 0.000, 17:04:08.698
85, -6583.55, -6668.37, -6702.86, -6642.00, -39484.18, -90964.69, -145166.42, -140295.50, 0.000, 0.000, 0.000, 17:04:08.698
86, -6579.55, -6665.11, -6700.29, -6639.47, -39482.05, -90962.43, -145164.25, -140293.53, 0.000, 0.000, 0.000, 17:04:08.698
87, -6577.76, -6663.61, -6699.02, -6638.22, -39481.09, -90961.07, -145163.05, -140292.22, 0.000, 0.000, 0.000, 17:04:08.698
88, -6579.03, -6664.15, -6698.97, -6638.15, -39480.80, -90960.58, -145162.33, -140291.25, 0.000, 0.000, 0.000, 17:04:08.698
89, -6581.83, -6666.45, -6700.83, -6640.01, -39482.43, -90961.94, -145163.42, -140292.31, 0.050, -0.004, 0.978, 17:04:08.699
90, -6583.64, -6668.33, -6702.93, -6642.09, -39484.63, -90964.02, -145165.44, -140294.42, 0.000, 0.000, 0.000, 17:04:08.699
91, -6579.68, -6665.16, -6700.34, -6639.50, -39482.50, -90961.70, -145163.33, -140292.48, 0.000, 0.000, 0.000, 17:04:08.699
92, -6577.98, -6663.73, -6699.20, -6638.22, -39481.54, -90960.55, -145162.19, -140291.28, 0.000, 0.000, 0.000, 17:04:08.699
93, -6579.48, -6664.55, -6699.49, -6638.56, -39481.58, -90960.35, -145161.77, -140290.63, 0.000, 0.000, 0.000, 17:04:08.699
94, -6580.24, -6664.75, -6699.18, -6638.24, -39481.09, -90959.68, -145160.88, -140289.72, 0.000, 0.000, 0.000, 17:04:08.699
95, -6580.85, -6665.42, -6700.09, -6639.21, -39482.30, -90960.60, -145161.77, -140290.66, 0.000, 0.000, 0.000, 17:04:08.699
96, -6578.48, -6663.88, -6699.13, -6638.33, -39481.76, -90959.88, -145161.25, -140290.31, 0.000, 0.000, 0.000, 17:04:08.700
97, -6576.31, -6662.05, -6697.45, -6636.68, -39480.33, -90958.14, -145159.59, -140288.58, 0.000, 0.000, 0.000, 17:04:08.700
98, -6577.83, -6662.99, -6697.77, -6636.99, -39480.38, -90958.01, -145159.20, -140287.92, 0.000, 0.000, 0.000, 17:04:08.700
99, -6581.49, -6666.21, -6700.47, -6639.74, -39482.95, -90960.53, -145161.44, -140289.95, 0.054, -0.006, 0.982, 17:04:08.700
100, -6582.81, -6667.70, -6702.15, -6641.35, -39484.76, -90962.08, -145163.00, -140291.64, 0.000, 0.000, 0.000, 17:04:08.700
101, -6579.66, -6665.20, -6700.31, -6639.50, -39483.35, -90960.45, -145161.55, -140290.31, 0.000, 0.000, 0.000, 17:04:08.700
102, -6575.39, -6661.27, -6696.49, -6635.70, -39479.82, -90956.58, -145157.67, -140286.58, 0.000, 0.000, 0.000, 17:04:08.700
103, -6579.24, -6664.46, -6699.09, -6638.29, -39482.10, -90958.92, -145159.59, -140288.31, 0.000, 0.000, 0.000, 17:04:08.701
104, -6578.39, -6663.05, -6697.36, -6636.55, -39480.13, -90956.87, -145157.30, -140285.83, 0.000, 0.000, 0.000, 17:04:08.701
105, -6579.46, -6664.37, -6698.82, -6638.13, -39481.76, -90958.25, -145158.70, -140287.28, 0.000, 0.000, 0.000, 17:04:08.701
106, -6576.20, -6661.78, -6696.72, -6636.17, -39480.22, -90956.42, -145157.09, -140285.98, 0.000, 0.000, 0.000, 17:04:08.701
107, -6574.65, -6660.53, -6695.76, -6635.03, -39479.41, -90955.26, -145156.17, -140284.94, 0.000, 0.000, 0.000, 17:04:08.701
108, -6576.80, -6662.07, -6696.78, -6635.94, -39480.20, -90955.98, -145156.45, -140285.05, 0.000, 0.000, 0.000, 17:04:08.701
109, -6580.17, -6664.91, -6699.15, -6638.36, -39482.46, -90957.96, -145158.30, -140286.72, 0.048, -0.008, 0.984, 17:04:08.701
110, -6580.49, -6665.31, -6699.73, -6638.94, -39483.15, -90958.50, -145158.80, -140287.28, 0.000, 0.000, 0.000, 17:04:08.701
111, -6576.93, -6662.47, -6697.43, -6636.77, -39481.36, -90956.46, -145156.88, -140285.44, 0.000, 0.000, 0.000, 17:04:08.702
112, -6573.92, -6659.75, -6694.95, -6634.22, -39479.06, -90953.85, -145154.34, -140282.97, 0.000, 0.000, 0.000, 17:04:08.702
113, -6579.46, -6664.60, -6699.42, -6638.65, -39483.30, -90957.90, -145158.17, -140286.72, 0.000, 0.000, 0.000, 17:04:08.702
114, -6585.99, -6670.70, -6705.10, -6644.30, -39488.82, -90963.23, -145163.20, -140291.66, 0.000, 0.000, 0.000, 17:04:08.702
115, -6582.97, -6667.88, -6702.33, -6641.69, -39486.21, -90960.47, -145160.38, -140288.78, 0.000, 0.000, 0.000, 17:04:08.702
116, -6576.24, -6661.80, -6696.72, -6636.19, -39481.02, -90954.97, -145155.08, -140283.61, 0.000, 0.000, 0.000, 17:04:08.702
117, -6577.76, -6663.59, -6698.75, -6637.98, -39483.26, -90956.95, -145157.08, -140285.67, 0.000, 0.000, 0.000, 17:04:08.703
118, -6580.55, -6665.78, -6700.47, -6639.74, -39484.82, -90958.39, -145158.27, -140286.72, 0.000, 0.000, 0.000, 17:04:08.703
119, -6581.69, -6666.39, -6700.61, -6639.94, -39484.82, -90958.23, -145157.91, -140286.27, 0.046, -0.002, 0.984, 17:04:08.703
120, -6581.72, -6666.45, -6700.87, -6640.28, -39485.14, -90958.37, -145158.06, -140286.38, 0.000, 0.000, 0.000, 17:04:08.703
121, -6578.21, -6663.70, -6698.55, -6638.00, -39483.26, -90956.15, -145155.95, -140284.45, 0.000, 0.000, 0.000, 17:04:08.703
122, -6579.26, -6664.93, -6700.09, -6639.52, -39485.03, -90957.67, -145157.56, -140286.00, 0.000, 0.000, 0.000, 17:04:08.703
123, -6583.33, -6668.42, -6703.20, -6642.65, -39487.84, -90960.47, -145160.14, -140288.47, 0.000, 0.000, 0.000, 17:04:08.703
124, -6583.75, -6668.44, -6702.84, -6642.25, -39487.24, -90959.66, -145159.05, -140287.50, 0.000, 0.000, 0.000, 17:04:08.704
125, -6583.75, -6668.62, -6703.11, -6642.45, -39487.62, -90959.82, -145159.08, -140287.59, 0.000, 0.000, 0.000, 17:04:08.704
126, -6580.73, -6666.21, -6701.16, -6640.55, -39486.12, -90957.98, -145157.45, -140285.89, 0.000, 0.000, 0.000, 17:04:08.704
127, -6579.59, -6665.33, -6700.70, -6639.99, -39485.74, -90957.29, -145156.94, -140285.41, 0.000, 0.000, 0.000, 17:04:08.704
128, -6580.93, -6666.21, -6701.10, -6640.50, -39486.01, -90957.56, -145156.89, -140285.27, 0.000, 0.000, 0.000, 17:04:08.704
129, -6584.13, -6669.00, -6703.38, -6642.76, -39488.04, -90959.51, -145158.55, -140286.81, 0.000, 0.000, 0.000, 17:04:08.704
130, -6581.87, -6666.92, -6701.34, -6640.73, -39486.12, -90957.34, -145156.36, -140284.66, 0.044, -0.006, 0.982, 17:04:08.704
131, -6578.32, -6663.79, -6698.77, -6638.22, -39483.89, -90954.85, -145154.06, -140282.41, 0.000, 0.000, 0.000, 17:04:08.705
132, -6578.36, -6663.99, -6699.22, -6638.62, -39484.71, -90955.33, -145154.64, -140282.83, 0.000, 0.000, 0.000, 17:04:08.705
133, -6580.11, -6665.29, -6700.14, -6639.45, -39485.50, -90955.98, -145155.05, -140283.25, 0.000, 0.000, 0.000, 17:04:08.705
134, -6580.22, -6665.07, -6699.56, -6638.89, -39484.78, -90955.17, -145153.97, -140282.25, 0.000, 0.000, 0.000, 17:04:08.705
135, -6581.31, -6666.12, -6700.65, -6640.05, -39485.90, -90956.09, -145154.80, -140283.13, 0.000, 0.000, 0.000, 17:04:08.705
136, -6580.02, -6665.31, -6700.18, -6639.63, -39485.68, -90955.52, -145154.50, -140282.81, 0.000, 0.000, 0.000, 17:04:08.705
137, -6578.65, -6664.08, -6699.31, -6638.69, -39485.00, -90954.61, -145153.59, -140281.83, 0.000, 0.000, 0.000, 17:04:08.706
138, -6579.59, -6664.73, -6699.71, -6639.14, -39485.50, -90954.92, -145153.61, -140281.94, 0.000, 0.000, 0.000, 17:04:08.706
139, -6579.57, -6664.44, -6698.97, -6638.47, -39484.64, -90953.91, -145152.47, -140280.77, 0.000, 0.000, 0.000, 17:04:08.706
140, -6580.73, -6665.71, -6700.29, -6639.79, -39485.96, -90955.01, -145153.47, -140281.72, 0.052, 0.000, 0.978, 17:04:08.706
141, -6580.60, -6665.87, -6700.81, -6640.26, -39486.68, -90955.41, -145154.02, -140282.14, 0.000, 0.000, 0.000, 17:04:08.706
142, -6579.59, -6664.98, -6700.11, -6639.50, -39486.19, -90954.66, -145153.39, -140281.38, 0.000, 0.000, 0.000, 17:04:08.706
143, -6581.31, -6666.39, -6701.41, -6640.79, -39487.44, -90955.88, -145154.38, -140282.42, 0.000, 0.000, 0.000, 17:04:08.706
144, -6582.45, -6667.32, -6701.97, -6641.31, -39487.91, -90956.27, -145154.48, -140282.52, 0.000, 0.000, 0.000, 17:04:08.707
145, -6581.81, -6666.63, -6701.23, -6640.66, -39487.37, -90955.37, -145153.55, -140281.58, 0.000, 0.000, 0.000, 17:04:08.707
146, -6582.61, -6667.84, -6702.84, -6642.22, -39489.00, -90956.71, -145155.05, -140283.08, 0.000, 0.000, 0.000, 17:04:08.707
147, -6583.53, -6668.84, -6704.09, -6643.36, -39490.46, -90957.85, -145156.30, -140284.19, 0.000, 0.000, 0.000, 17:04:08.707
148, -6585.14, -6670.19, -6705.21, -6644.59, -39491.60, -90958.81, -145157.16, -140285.06, 0.000, 0.000, 0.000, 17:04:08.707
149, -6583.35, -6668.06, -6702.75, -6642.25, -39488.98, -90956.09, -145154.33, -140282.09, 0.000, 0.000, 0.000, 17:04:08.707
150, -6580.04, -6664.66, -6699.38, -6638.85, -39485.63, -90952.62, -145150.56, -140278.56, 0.052, -0.004, 0.980, 17:04:08.707
151, -6578.90, -6663.97, -6698.97, -6638.38, -39485.47, -90952.09, -145150.06, -140278.16, 0.000, 0.000, 0.000, 17:04:08.708
152, -6580.38, -6665.54, -6700.76, -6640.19, -39487.46, -90953.83, -145151.94, -140279.81, 0.000, 0.000, 0.000, 17:04:08.708
153, -6582.50, -6667.44, -6702.37, -6641.93, -39489.12, -90955.46, -145153.44, -140281.20, 0.000, 0.000, 0.000, 17:04:08.708
154, -6583.37, -6667.99, -6702.66, -6642.29, -39489.32, -90955.50, -145153.23, -140281.02, 0.000, 0.000, 0.000, 17:04:08.708
155, -6581.07, -6665.80, -6700.43, -6639.99, -39487.15, -90953.13, -145150.59, -140278.45, 0.000, 0.000, 0.000, 17:04:08.708
156, -6582.07, -6667.21, -6702.10, -6641.62, -39488.98, -90954.70, -145152.25, -140280.14, 0.000, 0.000, 0.000, 17:04:08.708
157, -6581.43, -6666.54, -6701.79, -6641.31, -39488.87, -90954.30, -145151.98, -140279.83, 0.000, 0.000, 0.000, 17:04:08.708
158, -6581.83, -6666.68, -6701.66, -6641.28, -39488.76, -90954.07, -145151.75, -140279.59, 0.000, 0.000, 0.000, 17:04:08.709
159, -6583.91, -6668.58, -6703.09, -6642.78, -39490.19, -90955.28, -145152.78, -140280.59, 0.000, 0.000, 0.000, 17:04:08.709
160, -6585.74, -6670.52, -6705.12, -6644.75, -39492.25, -90957.07, -145154.48, -140282.27, 0.048, -0.006, 0.984, 17:04:08.709
161, -6580.33, -6665.47, -6700.49, -6640.10, -39487.80, -90952.35, -145149.75, -140277.67, 0.000, 0.000, 0.000, 17:04:08.709
162, -6576.87, -6662.09, -6697.34, -6636.95, -39484.85, -90949.16, -145146.56, -140274.45, 0.000, 0.000, 0.000, 17:04:08.709
163, -6579.15, -6664.08, -6698.97, -6638.74, -39486.59, -90950.72, -145148.16, -140275.91, 0.000, 0.000, 0.000, 17:04:08.709
164, -6581.94, -6666.56, -6701.08, -6640.88, -39488.58, -90952.58, -145149.72, -140277.58, 0.000, 0.000, 0.000, 17:04:08.709
165, -6580.22, -6664.89, -6699.42, -6639.16, -39486.95, -90950.74, -145147.80, -140275.67, 0.000, 0.000, 0.000, 17:04:08.710
166, -6578.90, -6664.04, -6698.84, -6638.60, -39486.57, -90950.23, -145147.31, -140275.13, 0.000, 0.000, 0.000, 17:04:08.710
167, -6578.83, -6663.99, -6699.06, -6638.74, -39487.02, -90950.30, -145147.47, -140275.19, 0.000, 0.000, 0.000, 17:04:08.710
168, -6578.77, -6663.77, -6698.62, -6638.31, -39486.57, -90949.71, -145146.77, -140274.52, 0.000, 0.000, 0.000, 17:04:08.710
169, -6582.16, -6666.99, -6701.39, -6641.24, -39489.36, -90952.33, -145149.30, -140276.91, 0.000, 0.000, 0.000, 17:04:08.710
170, -6583.73, -6668.69, -6703.09, -6642.96, -39491.04, -90953.88, -145150.53, -140278.34, 0.046, 0.002, 0.976, 17:04:08.710
171, -6582.01, -6667.21, -6701.99, -6641.84, -39490.05, -90952.62, -145149.36, -140277.11, 0.000, 0.000, 0.000, 17:04:08.710
172, -6581.45, -6666.56, -6701.70, -6641.51, -39489.99, -90952.24, -145149.23, -140276.69, 0.000, 0.000, 0.000, 17:04:08.711
173, -6579.26, -6664.11, -6699.06, -6638.78, -39487.21, -90949.45, -145146.25, -140273.83, 0.000, 0.000, 0.000, 17:04:08.711
174, -6578.30, -6662.97, -6697.57, -6637.28, -39485.54, -90947.57, -145144.17, -140271.86, 0.000, 0.000, 0.000, 17:04:08.711
175, -6577.43, -6662.27, -6696.78, -6636.50, -39484.85, -90946.70, -145143.22, -140270.88, 0.000, 0.000, 0.000, 17:04:08.711
176, -6577.54, -6662.74, -6697.57, -6637.26, -39485.99, -90947.48, -145144.05, -140271.70, 0.000, 0.000, 0.000, 17:04:08.711
177, -6577.11, -6662.36, -6697.45, -6637.06, -39486.05, -90947.32, -145143.89, -140271.47, 0.000, 0.000, 0.000, 17:04:08.711
178, -6577.09, -6662.14, -6696.90, -6636.41, -39485.59, -90946.61, -145143.02, -140270.58, 0.000, 0.000, 0.000, 17:04:08.712
179, -6578.50, -6663.23, -6697.72, -6637.31, -39486.30, -90947.21, -145143.39, -140270.92, 0.000, 0.000, 0.000, 17:04:08.712
180, -6581.20, -6665.96, -6700.38, -6640.03, -39489.07, -90949.76, -145145.83, -140273.47, 0.046, 0.002, 0.976, 17:04:08.712
181, -6582.83, -6667.88, -6702.68, -6642.33, -39491.55, -90951.95, -145148.09, -140275.91, 0.000, 0.000, 0.000, 17:04:08.712
182, -6582.66, -6667.79, -6702.82, -6642.40, -39491.93, -90951.97, -145148.27, -140275.91, 0.000, 0.000, 0.000, 17:04:08.712
183, -6584.35, -6669.22, -6704.11, -6643.70, -39493.09, -90953.18, -145149.25, -140276.77, 0.000, 0.000, 0.000, 17:04:08.712
184, -6583.01, -6667.75, -6702.28, -6641.95, -39490.99, -90951.03, -145146.86, -140274.33, 0.000, 0.000, 0.000, 17:04:08.713
185, -6582.72, -6667.50, -6701.97, -6641.71, -39490.77, -90950.48, -145146.33, -140273.83, 0.000, 0.000, 0.000, 17:04:08.713
186, -6580.47, -6665.69, -6700.40, -6640.10, -39489.47, -90948.87, -145144.72, -140272.39, 0.000, 0.000, 0.000, 17:04:08.713
187, -6580.67, -6665.96, -6700.99, -6640.61, -39490.14, -90949.34, -145145.31, -140272.77, 0.000, 0.000, 0.000, 17:04:08.713
188, -6583.57, -6668.62, -6703.44, -6643.16, -39492.60, -90951.66, -145147.50, -140274.94, 0.000, 0.000, 0.000, 17:04:08.713
189, -6584.11, -6669.00, -6703.33, -6643.18, -39492.54, -90951.30, -145147.02, -140274.48, 0.000, 0.000, 0.000, 17:04:08.713
190, -6583.26, -6668.33, -6702.60, -6642.58, -39491.89, -90950.43, -145146.05, -140273.53, 0.050, 0.006, 0.978, 17:04:08.713
191, -6581.38, -6666.88, -6701.48, -6641.51, -39490.97, -90949.29, -145144.95, -140272.41, 0.000, 0.000, 0.000, 17:04:08.713
192, -6583.97, -6669.45, -6704.38, -6644.15, -39493.95, -90952.09, -145147.80, -140275.19, 0.000, 0.000, 0.000, 17:04:08.714
