['%OpenBCI Raw EEG Data']
['%']
['%Sample Rate = 250.0 Hz']
['%First Column = SampleIndex']
['%Last Column = Timestamp ']
['%Other Columns = EEG data in microvolts followed by Accel Data (in G) interleaved with Aux Data']
146, 28924.86, 25214.55, 265.61, 19883.20, 6415.98, 73510.10, 74704.35, 155663.41, 0.000, 0.000, 0.000, 19:25:50.171
147, 32034.59, 29747.29, 2552.01, 22483.17, -404.21, 71180.54, 61876.96, 157096.75, 0.052, -0.022, 0.954, 19:25:50.171
148, 30285.07, 28631.49, 257.47, 21416.84, -2807.51, 71977.38, 61853.20, 158981.67, 0.000, 0.000, 0.000, 19:25:50.171
149, 29487.63, 27208.62, -1115.26, 20589.67, -1634.56, 67774.87, 65096.12, 160704.88, 0.000, 0.000, 0.000, 19:25:50.171
150, 31611.49, 30958.71, 4090.32, 22437.46, 2658.99, 57317.31, 51545.25, 161074.72, 0.000, 0.000, 0.000, 19:25:50.171
151, 36718.98, 35233.52, 10251.54, 25585.10, 9650.41, 52234.08, 33728.80, 161233.05, 0.000, 0.000, 0.000, 19:25:50.172
152, 42191.62, 34684.52, 11044.20, 27586.70, 17782.27, 54756.36, 24341.14, 162521.66, 0.000, 0.000, 0.000, 19:25:50.172
153, 43932.44, 31960.09, 7961.96, 27448.57, 23684.62, 59182.97, 29165.23, 164609.03, 0.000, 0.000, 0.000, 19:25:50.172
154, 42937.50, 29862.47, 6628.10, 26229.06, 25855.07, 60361.20, 40856.55, 166693.97, 0.000, 0.000, 0.000, 19:25:50.172
155, 45735.38, 32876.53, 11486.70, 27131.42, 27063.22, 59191.64, 41310.31, 167804.31, 0.000, 0.000, 0.000, 19:25:50.172
156, 53022.67, 36271.49, 16033.51, 29137.35, 30737.49, 62543.73, 35167.32, 169080.34, 0.000, 0.000, 0.000, 19:25:50.172
157, 60691.49, 35483.93, 14096.71, 27541.06, 33490.38, 69154.35, 30614.71, 171364.00, 0.046, 0.008, 0.978, 19:25:50.172
158, 71864.52, 32559.36, 7816.87, 21973.20, 33238.32, 70486.70, 30252.66, 174255.64, 0.000, 0.000, 0.000, 19:25:50.172
159, 95495.21, 29416.28, 1832.82, 17284.38, 32391.14, 66258.62, 37332.08, 177093.47, 0.000, 0.000, 0.000, 19:25:50.173
160, 118605.39, 31469.42, 2979.78, 19350.93, 32758.40, 59923.46, 41780.15, 179011.78, 0.000, 0.000, 0.000, 19:25:50.173
161, 152191.19, 29463.64, -3440.87, 18145.26, 33504.35, 57062.55, 43960.07, 181999.70, 0.000, 0.000, 0.000, 19:25:50.173
162, 184737.88, 20529.41, -22148.59, 6176.06, 33071.68, 61756.26, 48896.41, 187500.00, 0.000, 0.000, 0.000, 19:25:50.173
163, 187500.00, 13409.68, -33977.02, -7354.17, 30452.17, 66417.73, 51239.94, 187500.00, 0.000, 0.000, 0.000, 19:25:50.173
164, 187500.00, 11720.14, -36387.57, -10892.76, 23868.87, 65727.42, 48780.42, 187500.00, 0.000, 0.000, 0.000, 19:25:50.173
165, 187500.00, 18290.39, -21476.63, 565.01, 13238.96, 55444.82, 34271.68, 187500.00, 0.000, 0.000, 0.000, 19:25:50.174
166, 187500.00, 24830.06, -8575.89, 10505.90, 7816.43, 44952.71, 24107.21, 187500.00, 0.000, 0.000, 0.000, 19:25:50.174
167, 187500.00, 29378.75, -1567.33, 16514.38, 5601.91, 36475.41, 18483.97, 187500.00, 0.042, 0.012, 0.978, 19:25:50.174
168, 187500.00, 32626.79, 3941.80, 20398.89, 3248.62, 29930.68, 10126.84, 187500.00, 0.000, 0.000, 0.000, 19:25:50.174
169, 187500.00, 35290.18, 8810.05, 23310.41, 5020.09, 24910.86, -563.40, 187500.00, 0.000, 0.000, 0.000, 19:25:50.174
170, 187500.00, 39367.43, 14096.89, 27171.29, 12831.02, 21904.48, -10953.90, 187500.00, 0.000, 0.000, 0.000, 19:25:50.174
171, 187500.00, 43504.79, 19272.77, 30703.92, 18960.45, 24336.42, -18304.45, 187500.00, 0.000, 0.000, 0.000, 19:25:50.174
172, 187500.00, 45301.84, 21909.02, 32501.02, 22201.12, 26855.96, -19034.32, 187500.00, 0.000, 0.000, 0.000, 19:25:50.174
173, 187500.00, 45768.57, 22674.64, 33576.43, 22183.53, 27471.99, -17674.96, 176735.38, 0.000, 0.000, 0.000, 19:25:50.174
174, 187500.00, 46460.09, 24611.93, 35476.29, 22299.64, 27339.38, -18060.52, 138058.63, 0.000, 0.000, 0.000, 19:25:50.175
175, 187500.00, 46857.48, 28107.90, 39454.40, 26475.62, 27905.10, -18324.83, 102173.69, 0.000, 0.000, 0.000, 19:25:50.175
176, 187500.00, 46389.93, 31277.13, 43199.80, 30329.51, 28403.57, -18459.72, 79857.15, 0.000, 0.000, 0.000, 19:25:50.175
177, 187500.00, 45437.07, 31734.74, 42910.95, 31360.64, 26512.70, -22636.75, 69816.77, 0.042, 0.010, 0.978, 19:25:50.175
178, 187500.00, 44197.94, 31195.48, 41128.68, 30041.64, 19744.50, -25181.74, 62315.23, 0.000, 0.000, 0.000, 19:25:50.175
179, 187500.00, 43211.08, 31511.38, 40981.03, 27826.47, 17964.86, -23293.89, 50295.27, 0.000, 0.000, 0.000, 19:25:50.643
180, 187500.00, 42965.93, 33319.41, 42610.05, 26619.43, 24463.20, -20463.38, 34330.67, 0.000, 0.000, 0.000, 19:25:50.643
181, 187500.00, 42906.65, 36130.34, 43703.87, 26462.32, 29895.72, -19851.10, 22195.77, 0.000, 0.000, 0.000, 19:25:50.644
182, 187500.00, 42430.52, 36386.87, 42320.48, 25769.35, 31271.45, -21463.42, 17322.58, 0.000, 0.000, 0.000, 19:25:50.644
183, 187500.00, 41927.13, 35282.61, 40739.14, 24908.74, 30137.39, -22507.36, 15005.55, 0.000, 0.000, 0.000, 19:25:50.644
184, 187500.00, 41108.01, 35587.42, 39696.45, 24965.20, 29493.26, -21578.20, 5171.34, 0.000, 0.000, 0.000, 19:25:50.644
185, 187500.00, 40423.40, 36069.41, 39696.77, 26476.82, 30440.97, -20225.15, -9454.94, 0.000, 0.000, 0.000, 19:25:50.644
186, 187500.00, 40736.95, 36249.97, 40764.35, 29254.54, 32595.37, -18474.12, -13573.25, 0.000, 0.000, 0.000, 19:25:50.644
187, 187500.00, 40969.34, 36289.71, 40910.20, 31192.60, 32989.68, -18239.92, -11527.58, 0.042, -0.002, 0.966, 19:25:50.644
188, 187500.00, 40338.44, 36115.97, 39262.29, 32168.81, 22679.67, -19864.55, -7904.18, 0.000, 0.000, 0.000, 19:25:50.644
189, 187500.00, 38966.00, 35048.05, 38028.32, 32509.70, 7597.07, -21881.15, -7660.70, 0.000, 0.000, 0.000, 19:25:50.645
190, 187500.00, 38162.45, 33833.59, 37995.86, 32209.02, 1975.22, -21932.74, -12692.66, 0.000, 0.000, 0.000, 19:25:50.645
191, 187500.00, 37958.04, 33379.82, 39198.90, 33158.57, 1786.87, -19125.85, -19913.44, 0.000, 0.000, 0.000, 19:25:50.645
192, 187500.00, 37897.63, 33315.18, 40621.75, 34429.44, 5570.37, -16417.40, -28623.89, 0.000, 0.000, 0.000, 19:25:50.645
193, 187500.00, 38104.76, 33517.49, 41863.54, 35568.96, 10469.11, -14435.52, -33735.51, 0.000, 0.000, 0.000, 19:25:50.645
194, 187500.00, 38345.85, 33768.68, 42303.36, 36685.65, 15048.27, -12722.88, -35842.41, 0.000, 0.000, 0.000, 19:25:50.645
195, 187500.00, 38900.19, 34331.81, 42675.60, 38514.89, 20070.46, -11410.36, -35851.73, 0.000, 0.000, 0.000, 19:25:50.645
196, 187500.00, 39583.20, 35026.05, 43226.33, 40988.11, 24263.02, -10274.14, -33356.00, 0.000, 0.000, 0.000, 19:25:50.645
197, 187500.00, 40119.79, 35244.07, 43760.60, 42804.46, 26592.32, -8937.19, -29598.89, 0.040, 0.014, 0.970, 19:25:50.645
198, 187500.00, 40528.94, 34897.75, 44275.36, 43641.98, 27467.79, -7827.27, -25124.14, 0.000, 0.000, 0.000, 19:25:50.646
199, 187500.00, 40619.11, 34262.96, 45021.26, 42961.79, 27565.24, -7260.34, -20861.69, 0.000, 0.000, 0.000, 19:25:50.646
200, 187500.00, 40531.47, 33634.79, 45562.69, 40495.77, 27073.91, -6958.97, -17863.47, 0.000, 0.000, 0.000, 19:25:50.646
201, 187500.00, 40440.59, 33300.88, 45707.77, 39058.84, 26134.40, -6415.38, -16097.90, 0.000, 0.000, 0.000, 19:25:50.646
202, 187500.00, 40140.07, 33232.04, 45244.29, 38692.81, 24295.79, -6383.61, -15974.03, 0.000, 0.000, 0.000, 19:25:50.646
203, 187500.00, 39587.48, 32798.03, 44264.70, 37869.38, 22762.48, -7051.28, -18378.07, 0.000, 0.000, 0.000, 19:25:50.646
204, 187500.00, 39105.94, 32175.67, 43806.64, 37160.46, 22356.86, -6626.60, -21768.41, 0.000, 0.000, 0.000, 19:25:50.646
205, 187500.00, 38772.81, 31799.36, 43730.79, 35673.11, 22363.88, -4752.03, -25204.61, 0.000, 0.000, 0.000, 19:25:50.646
206, 187500.00, 38241.55, 31257.30, 43361.45, 31520.47, 22354.87, -3008.92, -28540.29, 0.000, 0.000, 0.000, 19:25:50.647
207, 187500.00, 37714.34, 30728.30, 42759.54, 27520.00, 22279.50, -1579.96, -30980.39, 0.034, 0.010, 0.976, 19:25:50.647
208, 187500.00, 37221.44, 30013.01, 41870.49, 24191.16, 21984.06, -770.06, -32788.49, 0.000, 0.000, 0.000, 19:25:50.647
209, 187500.00, 36693.61, 29175.46, 40892.71, 21956.59, 21189.32, -185.79, -34362.61, 0.000, 0.000, 0.000, 19:25:50.647
210, 187500.00, 36245.61, 28513.63, 40225.61, 20425.92, 19536.18, 697.98, -35649.06, 0.000, 0.000, 0.000, 19:25:50.647
211, 187500.00, 35849.16, 27876.56, 39627.23, 18844.06, 17994.43, 1583.64, -36536.36, 0.000, 0.000, 0.000, 19:25:50.647
212, 187500.00, 35444.32, 26961.37, 38814.18, 17028.56, 17074.14, 2341.77, -37133.22, 0.000, 0.000, 0.000, 19:25:50.647
213, 187500.00, 35046.17, 25938.44, 37938.87, 14904.21, 16353.97, 2900.88, -37404.95, 0.000, 0.000, 0.000, 19:25:50.647
214, 187500.00, 34624.08, 25109.61, 37190.91, 13232.97, 15515.40, 3406.03, -37417.07, 0.000, 0.000, 0.000, 19:25:50.648
215, 187500.00, 34396.41, 24728.74, 36655.34, 12104.99, 15061.21, 4229.51, -37075.42, 0.000, 0.000, 0.000, 19:25:50.648
216, 187500.00, 34259.05, 24555.63, 36561.71, 10969.65, 14792.16, 5134.49, -36411.15, 0.000, 0.000, 0.000, 19:25:50.648
217, 187500.00, 34057.93, 24266.46, 36455.70, 9678.98, 14184.44, 5702.00, -35663.97, 0.054, 0.028, 0.974, 19:25:50.648
218, 187500.00, 34238.04, 23868.96, 36206.67, 8438.10, 13539.41, 6005.29, -34834.32, 0.000, 0.000, 0.000, 19:25:50.648
219, 187500.00, 37538.12, 23582.59, 35937.76, 7288.05, 13052.86, 6330.71, -33960.05, 0.000, 0.000, 0.000, 19:25:50.648
220, 187500.00, 41977.85, 23160.77, 35242.24, 6043.55, 12254.37, 6361.04, -33386.11, 0.000, 0.000, 0.000, 19:25:50.648
221, 187500.00, 44559.23, 22393.07, 34350.41, 4892.60, 10620.19, 6118.12, -33078.73, 0.000, 0.000, 0.000, 19:25:50.648
222, 187500.00, 46190.71, 21764.65, 33655.96, 4067.64, 8098.24, 6130.86, -32623.69, 0.000, 0.000, 0.000, 19:25:50.649
223, 187500.00, 47184.11, 21310.91, 32768.42, 3424.24, 5237.77, 6319.35, -32049.47, 0.000, 0.000, 0.000, 19:25:50.649
224, 187500.00, 47919.66, 21226.33, 31984.67, 3329.34, 3318.90, 6981.90, -31339.54, 0.000, 0.000, 0.000, 19:25:50.649
225, 187500.00, 48538.53, 21631.86, 31758.97, 3568.81, 2069.32, 8135.83, -30498.26, 0.000, 0.000, 0.000, 19:25:50.649
226, 187500.00, 48921.55, 22487.46, 31784.76, 3970.30, 1100.58, 9591.89, -29421.18, 0.000, 0.000, 0.000, 19:25:50.649
227, 187500.00, 49161.30, 23478.29, 31334.53, 4596.64, -193.72, 11368.43, -28141.94, 0.000, 0.000, 0.000, 19:25:50.649
228, 187500.00, 49429.65, 24481.82, 30048.90, 5281.18, -688.59, 13098.14, -26263.21, 0.050, 0.010, 0.962, 19:25:50.649
229, 187500.00, 49572.12, 25389.41, 28692.22, 5506.04, -472.76, 14264.35, -23868.76, 0.000, 0.000, 0.000, 19:25:50.649
230, 187500.00, 49760.03, 25976.97, 27667.41, 5722.09, -93.21, 15325.50, -21276.22, 0.000, 0.000, 0.000, 19:25:50.650
231, 187500.00, 50263.11, 26401.63, 27084.03, 6279.07, 152.71, 16153.23, -18529.19, 0.000, 0.000, 0.000, 19:25:50.650
232, 187500.00, 50481.23, 25979.90, 26576.38, 6620.16, 473.72, 16316.46, -16264.04, 0.000, 0.000, 0.000, 19:25:50.650
233, 187500.00, 50471.33, 23335.31, 25679.96, 5423.87, 890.63, 15471.34, -13549.38, 0.000, 0.000, 0.000, 19:25:50.650
234, 187500.00, 50719.82, 21595.92, 24767.14, 4150.63, 1774.13, 14255.34, -11242.64, 0.000, 0.000, 0.000, 19:25:50.650
235, 187500.00, 51193.34, 20894.88, 23892.58, 3476.84, 3508.69, 14025.34, -9322.73, 0.000, 0.000, 0.000, 19:25:50.650
236, 187500.00, 51156.82, 18932.37, 23007.52, 3424.04, 5698.04, 14835.43, -8043.92, 0.000, 0.000, 0.000, 19:25:50.650
237, 187500.00, 50270.05, 15897.14, 20311.97, 3424.96, 7202.22, 15826.82, -7658.47, 0.000, 0.000, 0.000, 19:25:50.650
238, 187500.00, 49451.36, 13612.97, 12175.84, 3472.63, 9270.36, 16739.27, -7456.90, 0.030, 0.030, 0.978, 19:25:50.651
239, 187500.00, 50013.68, 14130.30, 2252.74, 3987.64, 12476.50, 17350.18, -8701.78, 0.000, 0.000, 0.000, 19:25:50.651
240, 187500.00, 50940.12, 17763.09, -3881.63, 6212.35, 11898.24, 15309.25, -14202.41, 0.000, 0.000, 0.000, 19:25:50.651
241, 187500.00, 50929.41, 19848.86, -9461.90, 9339.81, -7714.68, 13239.25, -16713.54, 0.000, 0.000, 0.000, 19:25:50.651
242, 187500.00, 49449.90, 19883.35, -11584.44, 9607.99, -29939.91, 14634.67, -12743.49, 0.000, 0.000, 0.000, 19:25:50.651
243, 187500.00, 45475.61, 17331.90, -11023.01, 5219.98, -36429.90, 17265.45, -2157.21, 0.000, 0.000, 0.000, 19:25:50.651
244, 187500.00, 39669.85, 13958.46, -7491.79, 1561.45, -27220.45, 16766.29, 5879.27, 0.000, 0.000, 0.000, 19:25:50.651
245, 187500.00, 36215.61, 16399.63, -490.78, 5713.20, -12076.56, 12580.59, -2477.24, 0.000, 0.000, 0.000, 19:25:50.651
246, 187500.00, 34586.24, 18552.48, 4406.67, 7262.80, -1418.91, 8890.12, -12838.10, 0.000, 0.000, 0.000, 19:25:50.652
247, 187500.00, 30990.63, 14196.24, 3715.96, 5227.74, 3029.76, 11424.27, -12191.54, 0.000, 0.000, 0.000, 19:25:50.652
248, 187500.00, 24662.31, 5769.30, 193.54, 708.82, 10425.10, 20956.99, -1371.70, 0.064, -0.002, 0.968, 19:25:50.652
249, 187500.00, 22599.76, 3925.28, 3575.03, 1315.38, 17702.71, 28653.33, 7573.64, 0.000, 0.000, 0.000, 19:25:50.652
250, 187500.00, 31774.10, 10309.18, 15967.26, 8659.89, 9538.14, 20144.71, -799.83, 0.000, 0.000, 0.000, 19:25:50.652
251, 187500.00, 36605.29, 12557.01, 20446.93, 14349.17, -20.43, 10189.31, -11992.51, 0.000, 0.000, 0.000, 19:25:50.652
252, 187500.00, 29853.08, 5927.48, 13344.57, 13924.71, 737.52, 10783.35, -12447.60, 0.000, 0.000, 0.000, 19:25:50.652
253, 187500.00, 17874.20, -5400.65, 38.29, 10543.83, 8908.82, 18994.71, -2900.79, 0.000, 0.000, 0.000, 19:25:50.653
254, 187500.00, 14442.98, -8754.15, -2272.43, 7789.14, 15497.45, 25587.05, 4846.82, 0.000, 0.000, 0.000, 19:25:50.653
255, 187500.00, 28058.84, 11732.90, 15877.02, 105.75, 8020.43, 17779.16, -2828.70, 0.000, 0.000, 0.000, 19:25:50.653
0, 187500.00, 37275.24, 24928.03, 27631.83, -9119.42, -1199.15, 8169.63, -13593.06, 0.000, 0.000, 0.000, 19:25:50.653
1, 187500.00, 35633.04, 24670.16, 27644.05, -11804.38, -3845.46, 5277.87, -17785.19, 0.000, 0.000, 0.000, 19:25:50.653
2, 184367.86, 25352.11, 16751.02, 23587.10, -10024.09, -2110.94, 6884.78, -16125.13, 0.054, 0.000, 0.972, 19:25:50.653
3, 134993.20, 21408.59, 15092.25, 21730.10, -8877.75, -993.49, 7880.40, -13537.02, 0.000, 0.000, 0.000, 19:25:50.653
4, 109158.85, 36942.14, 32700.49, 26481.09, -18837.96, -10748.75, -2262.98, -23610.77, 0.000, 0.000, 0.000, 19:25:50.653
5, 89637.17, 40069.30, 37001.39, 26728.77, -30310.73, -21982.92, -13936.69, -36708.31, 0.000, 0.000, 0.000, 19:25:50.654
6, 63349.69, 25161.78, 22085.38, 18364.39, -32724.79, -24345.61, -16520.98, -39605.50, 0.000, 0.000, 0.000, 19:25:50.654
7, 37257.41, 5465.14, 2664.53, 10642.74, -26834.77, -18580.02, -10784.65, -33483.40, 0.000, 0.000, 0.000, 19:25:50.654
8, 22445.96, -4151.95, -5721.87, 6866.12, -22289.20, -14126.70, -6376.46, -27354.00, 0.000, 0.000, 0.000, 19:25:50.654
9, 27940.19, 9797.91, 6755.01, 7131.19, -31819.47, -23454.09, -16080.76, -37055.73, 0.000, 0.000, 0.000, 19:25:50.654
10, 38075.19, 27506.57, 21683.34, 6425.95, -50983.34, -42210.80, -35441.39, -57943.74, 0.000, 0.000, 0.000, 19:25:50.654
11, 38902.16, 29986.05, 23988.32, 4605.13, -67492.77, -58366.08, -52121.14, -75040.86, 0.000, 0.000, 0.000, 19:25:50.655
12, 30368.11, 20769.11, 15544.21, 3850.45, -72853.85, -63614.02, -57642.18, -80588.97, 0.052, 0.010, 0.972, 19:25:50.655
13, 23081.93, 15260.14, 9262.18, 2482.14, -76082.09, -66776.26, -61032.91, -83953.73, 0.000, 0.000, 0.000, 19:25:50.655
14, 24259.51, 21136.14, 10456.57, -2503.62, -89628.01, -80031.06, -74751.80, -97662.88, 0.000, 0.000, 0.000, 19:25:50.655
15, 23231.64, 22176.28, 9697.37, -3329.67, -101352.73, -91503.99, -86644.95, -109540.42, 0.000, 0.000, 0.000, 19:25:50.655
16, 17503.16, 15566.40, 5699.45, -353.81, -101570.10, -91718.97, -87022.31, -109871.12, 0.000, 0.000, 0.000, 19:25:50.655
17, 11334.32, 7490.27, 646.28, 4708.19, -93465.65, -83790.88, -79074.97, -101853.48, 0.000, 0.000, 0.000, 19:25:50.655
18, 7509.22, 5328.97, -1516.59, 8107.71, -88128.50, -78565.58, -73898.33, -96612.41, 0.000, 0.000, 0.000, 19:25:50.655
19, 8496.86, 12005.61, 195.94, 6780.80, -97608.74, -87837.32, -83547.11, -106238.20, 0.000, 0.000, 0.000, 19:25:50.656
20, 9024.72, 12671.11, -454.46, 4729.14, -106740.39, -96769.23, -92841.77, -115512.16, 0.000, 0.000, 0.000, 19:25:50.656
21, 7014.65, 7177.06, -4063.35, 5910.83, -105033.50, -95096.86, -91290.80, -113911.66, 0.000, 0.000, 0.000, 19:25:50.656
22, -14.77, 2336.74, -8841.41, 10015.48, -95856.33, -86112.91, -82264.32, -104814.28, 0.040, 0.010, 0.970, 19:25:50.656
23, -4295.09, 2810.78, -10945.02, 13347.68, -90145.95, -80519.99, -76712.39, -99194.55, 0.000, 0.000, 0.000, 19:25:50.656
24, 1151.07, 11002.56, -6555.63, 12024.21, -99048.38, -89227.47, -85782.69, -108237.63, 0.000, 0.000, 0.000, 19:25:50.656
25, 3496.77, 12888.33, -3516.87, 10709.59, -107592.35, -97584.61, -94488.35, -116919.49, 0.000, 0.000, 0.000, 19:25:50.656
26, 971.72, 7188.79, -4550.50, 12569.19, -105564.07, -95596.42, -92613.53, -114991.98, 0.000, 0.000, 0.000, 19:25:50.656
27, -4097.03, 721.42, -7364.61, 16209.13, -95895.73, -86325.14, -83291.16, -105596.43, 0.000, 0.000, 0.000, 19:25:50.657
28, -4244.98, 604.19, -10054.02, 17366.72, -88052.99, -80743.30, -77747.61, -99987.02, 0.000, 0.000, 0.000, 19:25:50.657
29, 2073.95, 7933.26, -11351.42, 12970.63, -89455.37, -89990.63, -87371.98, -109585.73, 0.000, 0.000, 0.000, 19:25:50.657
30, 4001.25, 10887.20, -13931.57, 10244.05, -83298.51, -97979.12, -95706.30, -117894.61, 0.000, 0.000, 0.000, 19:25:50.657
31, -23.83, 8191.98, -18845.78, 11475.99, -67124.34, -95311.75, -93139.67, -115273.89, 0.000, 0.000, 0.000, 19:25:50.657
32, -5947.22, 4762.02, -25628.31, 14830.07, -47658.99, -85538.85, -83306.11, -105367.04, 0.044, 0.012, 0.974, 19:25:50.657
33, -7851.30, 3395.41, -29167.13, 17059.90, -33394.22, -79641.72, -77442.27, -99437.81, 0.000, 0.000, 0.000, 19:25:50.657
34, -5405.01, 6454.00, -26749.54, 14777.07, -31338.26, -88390.93, -86555.77, -108526.97, 0.000, 0.000, 0.000, 19:25:50.657
35, -4397.82, 6669.83, -25111.63, 13368.33, -29451.82, -96023.20, -94523.87, -116468.23, 0.000, 0.000, 0.000, 19:25:50.658
36, -6261.17, 3449.34, -27435.89, 15226.66, -21005.74, -93395.82, -91998.68, -113889.40, 0.000, 0.000, 0.000, 19:25:50.658
37, -9074.14, -372.87, -30409.66, 18741.40, -8755.40, -83705.34, -82250.48, -104069.54, 0.000, 0.000, 0.000, 19:25:50.658
38, -9912.24, -842.26, -28719.00, 20426.74, -876.70, -77807.96, -76385.20, -98141.05, 0.000, 0.000, 0.000, 19:25:50.658
39, -6679.13, 3641.32, -24726.93, 17798.89, -4224.30, -86647.63, -85589.97, -107322.77, 0.000, 0.000, 0.000, 19:25:50.658
40, -5704.95, 5095.33, -23474.79, 16313.62, -6638.85, -94451.30, -93732.20, -115439.76, 0.000, 0.000, 0.000, 19:25:50.658
41, -6973.43, 2890.15, -24474.24, 18300.49, -1530.13, -91860.23, -91243.88, -112896.02, 0.000, 0.000, 0.000, 19:25:50.658
42, -8744.96, 99.24, -26491.29, 21930.55, 8046.87, -82231.22, -81554.45, -103133.02, 0.046, 0.012, 0.976, 19:25:50.658
43, -9377.92, 214.49, -26629.98, 23297.45, 13676.94, -76899.99, -76263.48, -97778.62, 0.000, 0.000, 0.000, 19:25:51.123
44, -6447.18, 4415.27, -23974.10, 20161.23, 8759.85, -86045.25, -85780.56, -107272.63, 0.000, 0.000, 0.000, 19:25:51.123
45, -5079.84, 6370.25, -22702.31, 18403.22, 5165.78, -93850.30, -93921.38, -115389.78, 0.000, 0.000, 0.000, 19:25:51.124
46, -6857.87, 4816.89, -23758.50, 20112.19, 8993.63, -91315.08, -91484.79, -112902.05, 0.000, 0.000, 0.000, 19:25:51.124
47, -9479.08, 2232.25, -25512.30, 23383.23, 17197.14, -81777.16, -81885.97, -103232.78, 0.000, 0.000, 0.000, 19:25:51.124
48, -9669.01, 2228.00, -25695.41, 24471.36, 21753.97, -76523.48, -76671.27, -97959.09, 0.000, 0.000, 0.000, 19:25:51.124
49, -6284.24, 5998.54, -23285.22, 21007.35, 16081.77, -85881.10, -86402.19, -107670.12, 0.000, 0.000, 0.000, 19:25:51.124
50, -4575.80, 7437.97, -22058.96, 19120.71, 12017.71, -93517.66, -94370.25, -115613.79, 0.000, 0.000, 0.000, 19:25:51.124
51, -5710.76, 5679.00, -22903.38, 20811.06, 15226.95, -90872.89, -91821.81, -113012.52, 0.000, 0.000, 0.000, 19:25:51.124
52, -7757.11, 3094.17, -24424.89, 24176.00, 22778.95, -81298.73, -82186.18, -103303.92, 0.050, 0.014, 0.972, 19:25:51.124
53, -7904.83, 2883.64, -24346.77, 25222.74, 26499.18, -76295.53, -77258.78, -98313.83, 0.000, 0.000, 0.000, 19:25:51.125
54, -4926.19, 6066.17, -21895.88, 21579.18, 20191.22, -85482.19, -87123.66, -108159.06, 0.000, 0.000, 0.000, 19:25:51.125
55, -3573.62, 7252.27, -20674.85, 19507.22, 15707.58, -92278.64, -95173.14, -116186.09, 0.000, 0.000, 0.000, 19:25:51.125
56, -5057.33, 5595.63, -21376.22, 21196.29, 18591.76, -88733.83, -92606.38, -113568.77, 0.000, 0.000, 0.000, 19:25:51.125
57, -7201.04, 3482.02, -22449.71, 24845.82, 25746.39, -78447.91, -82883.75, -103776.71, 0.000, 0.000, 0.000, 19:25:51.125
58, -7137.52, 3794.72, -21927.64, 26279.57, 29074.68, -72538.05, -77858.01, -98690.48, 0.000, 0.000, 0.000, 19:25:51.126
59, -4162.27, 6896.00, -19750.76, 22629.33, 22752.24, -80771.73, -87681.38, -108494.96, 0.000, 0.000, 0.000, 19:25:51.126
60, -2922.11, 8027.94, -18948.71, 20611.64, 18819.72, -86881.70, -95398.94, -116189.52, 0.000, 0.000, 0.000, 19:25:51.126
61, -4354.95, 6651.90, -19765.67, 22513.84, 21873.46, -82997.45, -92640.76, -113379.45, 0.000, 0.000, 0.000, 19:25:51.126
62, -6370.74, 4829.56, -20688.95, 26411.74, 28615.44, -72669.92, -82887.62, -103554.89, 0.000, 0.000, 0.000, 19:25:51.126
63, -6396.47, 4900.04, -20371.63, 27716.86, 31423.04, -67311.98, -78109.06, -98717.95, 0.052, 0.014, 0.976, 19:25:51.126
64, -3912.87, 7245.00, -18867.49, 24251.84, 26329.62, -74671.68, -86395.28, -106976.56, 0.000, 0.000, 0.000, 19:25:51.127
65, -2439.00, 8648.18, -17583.36, 24257.30, 25717.11, -76450.98, -88779.52, -109314.87, 0.000, 0.000, 0.000, 19:25:51.127
66, -2192.53, 8920.47, -16584.23, 29146.03, 32070.93, -66720.45, -79179.63, -99640.77, 0.000, 0.000, 0.000, 19:25:51.127
67, -1947.93, 8825.56, -15892.56, 35931.39, 40855.23, -50088.09, -62346.99, -82715.06, 0.000, 0.000, 0.000, 19:25:51.127
68, -331.21, 9904.28, -14888.76, 39183.70, 45143.70, -38993.33, -51154.11, -71442.27, 0.000, 0.000, 0.000, 19:25:51.127
69, 2615.87, 12914.12, -13222.00, 35626.87, 40889.41, -43269.67, -55692.99, -75945.59, 0.000, 0.000, 0.000, 19:25:51.127
70, 4231.48, 14513.26, -12336.37, 33962.60, 39049.14, -45291.32, -57944.06, -78155.98, 0.000, 0.000, 0.000, 19:25:51.127
71, 4222.96, 14227.69, -12582.04, 36832.84, 43656.60, -37138.07, -49815.87, -69959.82, 0.000, 0.000, 0.000, 19:25:51.128
72, 3507.03, 13243.03, -13105.70, 41280.77, 51424.75, -22574.10, -35490.79, -55417.55, 0.000, 0.000, 0.000, 19:25:51.128
73, 3629.90, 13706.07, -12135.70, 40911.18, 52214.07, -16670.20, -30523.68, -49314.45, 0.044, 0.020, 0.972, 19:25:51.128
74, 5033.23, 15674.65, -9696.79, 35215.64, 44015.48, -24808.92, -40089.08, -59311.85, 0.000, 0.000, 0.000, 19:25:51.128
75, 4999.64, 15294.74, -6649.78, 33800.73, 43234.98, -24281.88, -40362.02, -60177.24, 0.000, 0.000, 0.000, 19:25:51.128
76, 3772.62, 13500.43, -2625.88, 35792.92, 48714.84, -14134.48, -31093.06, -50432.44, 0.000, 0.000, 0.000, 19:25:51.128
77, 2532.88, 11853.40, 1344.84, 35388.13, 49238.61, -8913.18, -27324.31, -44966.66, 0.000, 0.000, 0.000, 19:25:51.128
78, 1759.73, 11501.45, 4286.06, 32621.25, 43699.02, -12459.67, -31976.49, -49341.18, 0.000, 0.000, 0.000, 19:25:51.128
79, 736.83, 12496.66, 6789.59, 30244.55, 37048.93, -18425.71, -39248.52, -58144.11, 0.000, 0.000, 0.000, 19:25:51.129
80, -1455.23, 12637.41, 8698.00, 31158.60, 36631.96, -15186.94, -37097.01, -56620.81, 0.000, 0.000, 0.000, 19:25:51.129
81, -10859.28, 12264.76, 9373.83, 32085.35, 37280.65, -8885.22, -31536.66, -50052.46, 0.000, 0.000, 0.000, 19:25:51.129
82, -17703.30, 12551.08, 9840.40, 31122.37, 35492.69, -7101.75, -30948.16, -48002.85, 0.000, 0.000, 0.000, 19:25:51.129
83, -14178.07, 13446.74, 9387.91, 28982.16, 31915.34, -9226.04, -35601.88, -52769.70, 0.038, 0.016, 0.972, 19:25:51.129
84, -8712.98, 11882.25, 9320.43, 27228.92, 29716.82, -11372.83, -40181.84, -58910.68, 0.000, 0.000, 0.000, 19:25:51.129
85, -7109.51, 8989.58, 10867.44, 28634.86, 34003.46, -4751.15, -35337.66, -54118.85, 0.000, 0.000, 0.000, 19:25:51.129
86, -6165.59, 8874.83, 10906.76, 28096.70, 33906.99, -2224.09, -35156.75, -53072.14, 0.000, 0.000, 0.000, 19:25:51.129
87, -4998.90, 9812.26, 10833.53, 27440.50, 32288.10, -1429.28, -35677.20, -53173.75, 0.000, 0.000, 0.000, 19:25:51.130
88, -3030.49, 10231.62, 10508.90, 26212.83, 30445.94, -757.39, -36512.71, -54322.58, 0.000, 0.000, 0.000, 19:25:51.130
89, -961.13, 10236.23, 9783.94, 24569.57, 29379.00, 817.14, -36605.99, -54975.50, 0.000, 0.000, 0.000, 19:25:51.130
90, 631.66, 10339.78, 6584.22, 23117.31, 28640.47, 2173.22, -36873.92, -55002.55, 0.000, 0.000, 0.000, 19:25:51.130
91, 1626.92, 10649.15, 2440.10, 21857.75, 28527.89, 4166.43, -37322.36, -54904.53, 0.000, 0.000, 0.000, 19:25:51.130
92, 2439.38, 10884.18, 1156.55, 20568.54, 28911.78, 6628.77, -37815.73, -54966.94, 0.000, 0.000, 0.000, 19:25:51.130
93, 3549.01, 10870.01, 2493.00, 20299.92, 29393.19, 8235.57, -38356.20, -55941.09, 0.042, 0.012, 0.974, 19:25:51.130
94, 4339.61, 10445.89, 4760.18, 20896.44, 29692.48, 9845.07, -37949.30, -56072.57, 0.000, 0.000, 0.000, 19:25:51.130
95, 4792.06, 10059.80, 6318.82, 21301.26, 28776.75, 10575.66, -38099.13, -55942.66, 0.000, 0.000, 0.000, 19:25:51.131
96, 5347.03, 9636.62, 7108.50, 21377.07, 27459.86, 11105.78, -38332.01, -55998.92, 0.000, 0.000, 0.000, 19:25:51.131
97, 6788.20, 10585.61, 7868.46, 21254.72, 27263.25, 12409.31, -37767.20, -55873.08, 0.000, 0.000, 0.000, 19:25:51.131
98, 8366.32, 12109.19, 7787.62, 20841.79, 27267.41, 14630.45, -37361.36, -56237.25, 0.000, 0.000, 0.000, 19:25:51.131
99, 9703.96, 12399.74, 7531.11, 20261.95, 27614.48, 17333.31, -36823.56, -56460.71, 0.000, 0.000, 0.000, 19:25:51.131
100, 11020.13, 11311.70, 7793.85, 19739.74, 27295.86, 18128.52, -36810.02, -56432.70, 0.000, 0.000, 0.000, 19:25:51.131
101, 12702.18, 11543.09, 8771.14, 20564.14, 26726.79, 17827.48, -37020.28, -56321.63, 0.000, 0.000, 0.000, 19:25:51.131
102, 14873.52, 13516.57, 10237.57, 22556.96, 26574.66, 17933.09, -36893.88, -56092.21, 0.000, 0.000, 0.000, 19:25:51.131
103, 16014.82, 15419.64, 11118.58, 24003.34, 26586.88, 18515.11, -36320.00, -56381.43, 0.030, 0.012, 0.974, 19:25:51.132
104, 15825.97, 15177.64, 11885.43, 24455.47, 27046.10, 20001.57, -34364.80, -56491.28, 0.000, 0.000, 0.000, 19:25:51.132
105, 15825.15, 13944.00, 12836.92, 23698.57, 27702.88, 21107.69, -31508.61, -56347.34, 0.000, 0.000, 0.000, 19:25:51.132
106, 16930.39, 13334.92, 13041.55, 21766.04, 28416.35, 21486.80, -29062.63, -56180.64, 0.000, 0.000, 0.000, 19:25:51.132
107, 18077.71, 13361.31, 12602.11, 20371.27, 28894.30, 21424.79, -27842.83, -56359.05, 0.000, 0.000, 0.000, 19:25:51.132
108, 18443.72, 13618.11, 12344.29, 19163.24, 28784.26, 20783.37, -27419.69, -57317.16, 0.000, 0.000, 0.000, 19:25:51.132
109, 19007.99, 13694.53, 11849.67, 17932.09, 28722.01, 20256.74, -26519.74, -57825.28, 0.000, 0.000, 0.000, 19:25:51.132
110, 20255.08, 12861.17, 10872.02, 17022.62, 28567.36, 20270.13, -25026.17, -57848.13, 0.000, 0.000, 0.000, 19:25:51.132
111, 21227.94, 11340.96, 9590.46, 17266.43, 28452.47, 21241.78, -22342.51, -57682.07, 0.000, 0.000, 0.000, 19:25:51.132
112, 21298.75, 10678.01, 9158.16, 17796.48, 28632.16, 22319.76, -19466.67, -57671.41, 0.000, 0.000, 0.000, 19:25:51.133
113, 21270.57, 10775.84, 9871.16, 19064.38, 29198.33, 22749.47, -17390.01, -58268.05, 0.034, 0.010, 0.980, 19:25:51.133
114, 20366.48, 11059.89, 10944.98, 21061.78, 29775.16, 23022.79, -15677.67, -58483.52, 0.000, 0.000, 0.000, 19:25:51.133
115, 19328.80, 11235.26, 11618.59, 23177.62, 29451.02, 23540.39, -14648.33, -58131.27, 0.000, 0.000, 0.000, 19:25:51.133
116, 18583.20, 10933.83, 12993.16, 25545.79, 29122.47, 24656.95, -12782.27, -57581.49, 0.000, 0.000, 0.000, 19:25:51.133
117, 18094.41, 10587.15, 14347.07, 26915.50, 29005.10, 25184.00, -9838.37, -57522.32, 0.000, 0.000, 0.000, 19:25:51.133
118, 17785.86, 11040.38, 14536.93, 27425.14, 28215.81, 25256.55, -7251.75, -58493.78, 0.000, 0.000, 0.000, 19:25:51.133
119, 18172.57, 11539.51, 14472.60, 28645.03, 27190.29, 25702.20, -4681.33, -58743.64, 0.000, 0.000, 0.000, 19:25:51.133
120, 18356.91, 12760.54, 13532.71, 29929.01, 26761.99, 25792.10, -3211.19, -58424.22, 0.000, 0.000, 0.000, 19:25:51.134
121, 18507.22, 15535.45, 12580.19, 30061.73, 26920.71, 25775.20, -2443.34, -57871.28, 0.000, 0.000, 0.000, 19:25:51.134
122, 18006.88, 18350.56, 10942.72, 28985.09, 26727.52, 25384.83, -1643.50, -58149.80, 0.000, 0.000, 0.000, 19:25:51.134
123, 17119.71, 19544.37, 10129.70, 27294.52, 26198.05, 24784.20, 426.74, -59958.60, 0.028, 0.006, 0.980, 19:25:51.134
124, 17826.61, 20208.66, 10171.67, 27589.16, 26498.57, 25696.03, 4776.81, -60254.58, 0.000, 0.000, 0.000, 19:25:51.134
125, 19263.78, 21873.95, 10844.82, 28714.17, 27927.81, 27081.80, 8147.10, -58435.37, 0.000, 0.000, 0.000, 19:25:51.134
126, 19313.25, 23190.38, 11612.18, 28592.82, 29918.64, 26704.92, 8982.12, -57623.31, 0.000, 0.000, 0.000, 19:25:51.134
127, 19389.29, 23656.55, 11917.06, 27335.98, 31973.41, 25598.80, 9003.08, -56880.49, 0.000, 0.000, 0.000, 19:25:51.134
128, 14756.55, 23753.78, 11796.38, 25333.58, 31915.94, 22275.14, 5677.19, -62493.66, 0.000, 0.000, 0.000, 19:25:51.135
129, 11906.80, 25186.06, 12373.43, 24117.71, 31082.96, 21060.86, 5383.17, -66884.55, 0.000, 0.000, 0.000, 19:25:51.135
130, 16467.83, 25341.13, 10902.24, 22886.20, 29881.06, 24202.56, 11284.34, -62367.47, 0.000, 0.000, 0.000, 19:25:51.135
131, 18036.70, 25046.83, 10245.37, 22524.39, 28048.73, 26359.39, 13214.89, -59665.92, 0.000, 0.000, 0.000, 19:25:51.135
132, 16854.11, 25040.97, 9358.03, 21988.64, 25174.86, 26140.50, 11325.92, -60603.64, 0.000, 0.000, 0.000, 19:25:51.135
133, 15797.52, 25208.07, 8064.51, 21116.72, 23624.70, 25343.81, 9360.22, -62461.93, 0.040, 0.014, 0.976, 19:25:51.135
134, 16153.69, 26304.38, 8077.38, 20553.52, 24136.82, 25482.78, 8817.74, -62707.41, 0.000, 0.000, 0.000, 19:25:51.135
135, 16203.56, 27234.88, 8502.33, 20169.30, 24848.75, 25557.21, 8405.10, -61737.13, 0.000, 0.000, 0.000, 19:25:51.135
136, 16121.93, 27969.70, 8853.66, 19878.03, 25289.68, 25520.39, 7882.54, -60730.34, 0.000, 0.000, 0.000, 19:25:51.136
137, 16139.93, 29400.90, 10055.00, 20430.34, 26232.25, 25912.29, 7766.69, -60035.09, 0.000, 0.000, 0.000, 19:25:51.136
138, 16114.51, 31304.69, 11476.97, 21688.75, 27363.07, 26525.66, 8018.62, -60011.28, 0.000, 0.000, 0.000, 19:25:51.136
139, 16702.74, 33231.41, 11556.39, 23199.84, 28631.27, 27347.45, 8953.01, -59442.47, 0.000, 0.000, 0.000, 19:25:51.136
140, 17078.77, 34919.77, 11715.08, 24595.79, 29817.47, 27925.91, 9897.44, -58463.15, 0.000, 0.000, 0.000, 19:25:51.136
141, 17245.60, 35993.04, 12236.98, 25523.28, 30554.81, 28088.07, 10661.07, -57581.69, 0.000, 0.000, 0.000, 19:25:51.136
142, 17124.25, 36555.56, 12647.91, 25997.11, 30933.79, 27906.55, 11162.37, -56949.20, 0.000, 0.000, 0.000, 19:25:51.136
143, 16815.33, 36973.98, 13116.20, 26415.58, 31238.46, 27653.98, 11592.78, -56827.63, 0.034, 0.014, 0.970, 19:25:51.136
144, 17181.18, 37512.91, 13833.54, 27097.27, 31766.88, 27897.05, 12607.95, -56147.00, 0.000, 0.000, 0.000, 19:25:51.136
145, 17375.04, 38069.18, 14604.90, 27747.66, 32229.83, 28091.31, 13534.16, -55100.04, 0.000, 0.000, 0.000, 19:25:51.137
146, 17373.90, 38215.54, 14916.48, 28040.84, 32281.46, 28015.41, 14188.55, -54208.14, 0.000, 0.000, 0.000, 19:25:51.137
147, 17089.05, 37982.21, 14915.14, 28025.31, 32018.65, 27659.41, 14536.23, -53713.95, 0.000, 0.000, 0.000, 19:25:51.137
148, 16631.60, 37823.71, 14919.10, 28025.64, 31756.84, 27278.16, 14774.75, -53866.16, 0.000, 0.000, 0.000, 19:25:51.137
149, 16784.91, 37864.52, 15030.63, 28284.63, 31818.31, 27360.95, 15496.87, -53517.05, 0.000, 0.000, 0.000, 19:25:51.137
150, 16843.67, 37893.47, 15159.22, 28529.86, 31929.67, 27416.13, 16150.54, -52712.48, 0.000, 0.000, 0.000, 19:25:51.137
151, 16716.24, 37679.25, 14983.89, 28527.13, 31790.17, 27187.61, 16569.82, -51995.77, 0.000, 0.000, 0.000, 19:25:51.138
152, 16342.37, 37353.12, 14751.28, 28386.89, 31388.06, 26588.96, 16759.31, -51591.27, 0.000, 0.000, 0.000, 19:25:51.138
153, 15877.85, 37326.16, 14891.09, 28376.54, 30995.52, 26009.00, 16994.19, -51635.90, 0.000, 0.000, 0.000, 19:25:51.138
154, 16111.85, 37744.63, 15505.43, 28562.94, 30990.31, 26050.89, 17880.75, -51080.13, 0.034, 0.012, 0.982, 19:25:51.138
155, 16251.35, 38246.98, 16209.55, 28821.93, 31009.96, 26177.65, 18752.42, -50192.02, 0.000, 0.000, 0.000, 19:25:51.138
156, 16182.42, 38417.82, 16544.04, 28987.42, 30766.01, 26119.26, 19407.71, -49276.48, 0.000, 0.000, 0.000, 19:25:51.138
157, 15722.40, 37768.48, 16070.93, 28495.34, 29777.17, 25543.30, 19532.83, -48611.67, 0.000, 0.000, 0.000, 19:25:51.138
158, 14958.88, 36639.34, 15152.85, 27524.50, 28322.90, 24663.65, 19235.69, -48388.86, 0.000, 0.000, 0.000, 19:25:51.138
159, 15141.94, 35979.13, 14715.34, 27056.29, 27399.66, 24477.73, 19560.41, -47125.16, 0.000, 0.000, 0.000, 19:25:51.139
160, 17980.28, 35530.02, 14496.98, 26572.65, 26608.10, 24424.38, 19971.98, -45099.88, 0.000, 0.000, 0.000, 19:25:51.139
161, 23395.64, 35018.45, 14172.50, 25639.86, 25719.53, 24290.58, 20334.45, -42871.65, 0.000, 0.000, 0.000, 19:25:51.139
162, 28099.52, 34325.59, 13559.08, 24177.57, 24689.11, 23871.06, 20369.46, -40873.96, 0.000, 0.000, 0.000, 19:25:51.139
163, 31950.92, 33317.44, 12314.42, 21272.78, 23475.28, 23111.01, 19967.21, -39642.74, 0.000, 0.000, 0.000, 19:25:51.605
164, 34623.34, 32398.99, 10896.88, 16999.62, 22540.82, 22698.35, 19867.88, -37933.68, 0.034, 0.002, 0.972, 19:25:51.605
165, 35762.25, 31755.12, 10038.30, 13149.73, 21880.21, 22270.94, 19527.78, -36289.15, 0.000, 0.000, 0.000, 19:25:51.605
166, 36230.50, 31085.24, 9312.43, 9864.38, 21239.95, 21759.89, 19006.87, -35270.47, 0.000, 0.000, 0.000, 19:25:51.605
167, 36349.77, 30509.66, 8718.99, 8149.98, 20702.83, 21262.81, 18413.88, -34992.95, 0.000, 0.000, 0.000, 19:25:51.605
168, 36603.86, 30402.64, 8514.74, 7842.44, 20610.43, 21139.99, 18161.71, -35285.22, 0.000, 0.000, 0.000, 19:25:51.606
169, 37505.42, 30923.93, 8975.48, 8024.45, 20382.51, 21922.03, 18789.75, -34257.76, 0.000, 0.000, 0.000, 19:25:51.606
170, 38773.52, 31968.02, 9965.70, 8474.13, 19015.61, 22887.94, 19418.81, -32620.85, 0.000, 0.000, 0.000, 19:25:51.606
171, 39819.25, 32353.88, 10316.02, 8402.60, 16869.51, 23195.14, 19907.58, -31244.41, 0.000, 0.000, 0.000, 19:25:51.606
172, 40424.04, 31955.46, 10125.70, 8265.09, 14951.55, 18869.68, 20036.06, -31055.29, 0.000, 0.000, 0.000, 19:25:51.606
173, 40515.31, 32391.19, 10603.62, 8832.05, 13794.78, 8824.78, 17495.71, -37920.00, 0.000, 0.000, 0.000, 19:25:51.606
174, 40033.11, 32770.32, 10753.74, 9374.52, 12455.46, -3309.29, 12735.93, -50512.17, 0.038, 0.012, 0.980, 19:25:51.606
175, 39960.63, 31305.74, 8422.99, 8356.85, 11605.45, -11673.58, 13124.88, -54289.05, 0.000, 0.000, 0.000, 19:25:51.607
176, 40036.49, 28567.72, 4451.66, 6372.84, 12488.01, -15739.81, 18448.75, -47313.97, 0.000, 0.000, 0.000, 19:25:51.607
177, 39661.07, 25010.10, 998.74, 4473.59, 13723.23, -18387.75, 23793.43, -36092.21, 0.000, 0.000, 0.000, 19:25:51.607
178, 37398.96, 23494.81, -306.49, 3596.53, 13976.54, -23677.96, 22124.29, -35043.55, 0.000, 0.000, 0.000, 19:25:51.607
179, 33818.37, 24065.70, -1531.21, 3535.08, 13247.41, -30152.08, 14934.12, -48518.08, 0.000, 0.000, 0.000, 19:25:51.607
180, 32067.67, 22317.19, -4832.25, 2232.74, 12866.96, -32208.46, 13264.67, -55099.21, 0.000, 0.000, 0.000, 19:25:51.607
181, 31989.35, 19136.06, -8029.66, 291.80, 13948.65, -29911.73, 16328.49, -50611.63, 0.000, 0.000, 0.000, 19:25:51.607
182, 31856.22, 14759.44, -11355.71, -1018.28, 15050.97, -27338.44, 21712.08, -40581.22, 0.000, 0.000, 0.000, 19:25:51.607
183, 30898.92, 12064.20, -11934.87, -293.19, 13952.16, -26524.14, 19352.34, -39499.00, 0.000, 0.000, 0.000, 19:25:51.608
184, 30694.29, 12941.62, -9223.65, 2009.00, 11910.44, -24150.63, 7472.41, -52268.75, 0.036, 0.012, 0.972, 19:25:51.608
185, 30137.62, 11552.77, -9205.52, 3856.55, 7355.76, -18177.18, 2743.81, -58005.57, 0.000, 0.000, 0.000, 19:25:51.608
186, 28550.87, 8296.21, -13668.45, 3748.77, 1995.63, -9846.73, 7676.82, -53156.92, 0.000, 0.000, 0.000, 19:25:51.608
187, 24931.20, 5181.25, -19887.44, 812.02, 5329.53, 32.23, 17915.88, -42038.96, 0.000, 0.000, 0.000, 19:25:51.608
188, 23782.81, 6321.21, -15472.01, 2475.63, 8905.85, 867.83, 18853.23, -39570.52, 0.000, 0.000, 0.000, 19:25:51.608
189, 27720.07, 12846.62, -3054.57, 9181.85, 11072.74, -9390.06, 8197.86, -51204.92, 0.000, 0.000, 0.000, 19:25:51.608
190, 26795.40, 11804.56, -1981.37, 10992.92, 11706.19, -13991.90, 3319.46, -57156.65, 0.000, 0.000, 0.000, 19:25:51.609
191, 18342.96, 2548.97, -9760.16, 5622.00, 15050.19, -9968.70, 7274.58, -53286.76, 0.000, 0.000, 0.000, 19:25:51.609
192, 8271.06, -9719.92, -20243.62, -3015.00, 23024.98, -1310.17, 15983.80, -43553.63, 0.000, 0.000, 0.000, 19:25:51.609
193, 13047.34, -1856.67, -11762.72, 1888.74, 25228.03, 909.47, 18115.08, -39939.57, 0.000, 0.000, 0.000, 19:25:51.609
194, 31695.53, 22886.69, 9684.05, 18260.28, 17792.28, -6349.66, 10519.27, -48508.27, 0.048, 0.018, 0.984, 19:25:51.609
195, 34239.05, 23660.10, 10986.40, 20940.19, 13218.04, -10800.59, 5791.76, -54391.65, 0.000, 0.000, 0.000, 19:25:51.609
196, 19390.23, 5991.79, -2219.28, 18334.08, 16075.44, -7973.34, 8520.86, -51751.39, 0.000, 0.000, 0.000, 19:25:51.609
197, 4081.63, -11846.85, -16655.20, 24358.55, 25030.62, 818.30, 17364.06, -41731.18, 0.000, 0.000, 0.000, 19:25:51.610
198, 4090.46, -7329.74, -17884.68, 24661.51, 25434.47, 1244.61, 17658.68, -40029.09, 0.000, 0.000, 0.000, 19:25:51.610
199, 12645.77, 8776.01, -11916.05, 12497.40, 13015.33, -10878.10, 5092.04, -53530.17, 0.000, 0.000, 0.000, 19:25:51.610
200, 11982.57, 7422.75, -9630.85, 6800.99, 7219.64, -16523.55, -858.37, -60759.17, 0.000, 0.000, 0.000, 19:25:51.610
201, 3518.34, -4009.19, -11444.81, 10922.83, 11471.43, -12337.89, 3255.69, -56789.90, 0.000, 0.000, 0.000, 19:25:51.610
202, -6489.07, -14701.10, -15325.18, 19293.22, 20070.93, -3896.94, 11738.49, -47266.02, 0.000, 0.000, 0.000, 19:25:51.610
203, -1033.72, -7631.60, -10329.97, 19228.96, 20030.80, -3904.40, 11589.38, -45996.13, 0.000, 0.000, 0.000, 19:25:51.610
204, 12880.82, 9688.68, -739.75, 8825.68, 9405.79, -14271.61, 811.46, -57866.03, 0.036, 0.018, 0.960, 19:25:51.611
205, 12543.75, 10179.27, 892.53, 3460.85, 3942.96, -19590.16, -4802.56, -64537.48, 0.000, 0.000, 0.000, 19:25:51.611
206, 3867.23, 392.85, -471.60, 7029.20, 7625.14, -15962.59, -1255.86, -61097.69, 0.000, 0.000, 0.000, 19:25:51.611
207, -4082.01, -8935.98, -4847.44, 15516.27, 16345.23, -7407.17, 7339.62, -51835.19, 0.000, 0.000, 0.000, 19:25:51.611
208, 1128.49, -4461.56, -4820.73, 15411.82, 16269.14, -7451.40, 7151.37, -50523.14, 0.000, 0.000, 0.000, 19:25:51.611
209, 11928.72, 5171.39, -941.16, 4878.92, 5250.47, -18202.63, -4019.60, -62705.89, 0.000, 0.000, 0.000, 19:25:51.611
210, 11086.08, 4055.12, -1146.78, 2248.88, 315.29, -23004.93, -9104.80, -68646.92, 0.000, 0.000, 0.000, 19:25:51.611
211, 5861.74, -1369.94, -4391.42, 7152.36, 4898.97, -18496.34, -4657.19, -64265.42, 0.000, 0.000, 0.000, 19:25:51.611
212, 3041.54, -5046.04, -6890.42, 12703.39, 14548.73, -9029.03, 4870.40, -54166.97, 0.000, 0.000, 0.000, 19:25:51.612
213, 7375.99, -1519.61, -5400.34, 14636.44, 14683.37, -8869.91, 4892.10, -52662.90, 0.000, 0.000, 0.000, 19:25:51.612
214, 13979.47, 5488.31, -2168.16, 13326.40, 3747.02, -19549.82, -6204.02, -64713.19, 0.034, 0.014, 0.962, 19:25:51.612
215, 13233.75, 5619.43, -1130.26, 13577.66, -657.61, -23835.32, -10759.37, -70069.16, 0.000, 0.000, 0.000, 19:25:51.612
216, 7931.76, 1772.96, -1326.24, 16320.64, 4337.00, -18921.82, -5894.96, -65260.90, 0.000, 0.000, 0.000, 19:25:51.612
217, 240.91, -1948.65, -1950.50, 19357.55, 13767.51, -9667.20, 3417.63, -55372.29, 0.000, 0.000, 0.000, 19:25:51.612
218, 557.12, 520.13, -931.60, 19328.87, 13139.16, -10377.62, 2548.23, -54800.13, 0.000, 0.000, 0.000, 19:25:51.612
219, 6234.64, 6425.32, 1325.59, 17121.28, 3082.04, -21592.28, -9095.46, -67437.67, 0.000, 0.000, 0.000, 19:25:51.612
220, 6023.71, 6998.93, 2505.03, 17106.53, 618.07, -25688.93, -13457.25, -72546.43, 0.000, 0.000, 0.000, 19:25:51.613
221, 2910.87, 4475.40, 3190.02, 19891.87, 6281.80, -20312.17, -8120.21, -67255.93, 0.000, 0.000, 0.000, 19:25:51.613
222, 594.76, 2180.17, 3932.70, 23452.21, 15317.63, -10563.84, 1693.28, -56998.31, 0.000, 0.000, 0.000, 19:25:51.613
223, 4760.50, 5158.09, 6006.81, 23624.92, 16053.76, -10934.85, 1167.19, -56204.55, 0.000, 0.000, 0.000, 19:25:51.613
224, 11472.43, 10393.56, 8633.18, 21258.36, 8725.72, -21791.59, -10109.05, -68383.48, 0.040, 0.014, 0.968, 19:25:51.613
225, 11665.00, 10360.41, 9614.09, 21409.44, 7532.07, -25622.63, -14196.40, -73077.80, 0.000, 0.000, 0.000, 19:25:51.613
226, 7729.72, 6991.42, 9673.57, 24120.77, 13403.22, -20305.91, -8920.51, -67826.61, 0.000, 0.000, 0.000, 19:25:51.613
227, 3549.32, 3448.40, 9697.28, 27481.85, 22064.68, -10704.92, 742.84, -57764.06, 0.000, 0.000, 0.000, 19:25:51.614
228, 5919.28, 5146.35, 10851.46, 27328.90, 23114.25, -11400.01, -115.54, -57450.60, 0.000, 0.000, 0.000, 19:25:51.614
229, 10519.94, 9546.23, 12380.72, 24421.81, 16402.58, -22579.53, -11722.28, -69905.05, 0.000, 0.000, 0.000, 19:25:51.614
230, 9226.08, 9318.35, 12784.26, 24114.85, 14876.92, -26528.84, -15927.72, -74592.69, 0.000, 0.000, 0.000, 19:25:51.614
231, 4956.23, 6239.65, 12608.04, 26570.21, 20150.28, -21133.73, -10570.85, -69240.41, 0.000, 0.000, 0.000, 19:25:51.614
232, 1350.02, 3360.43, 12325.29, 29695.01, 28046.95, -11652.17, -1032.76, -59396.74, 0.000, 0.000, 0.000, 19:25:51.614
233, 3927.22, 5485.72, 12667.74, 29162.72, 28309.00, -12617.16, -2173.13, -59703.27, 0.000, 0.000, 0.000, 19:25:51.614
234, 8711.32, 10004.08, 12179.24, 25865.53, 21128.34, -23959.44, -13942.35, -72102.84, 0.044, 0.014, 0.972, 19:25:51.614
235, 7788.80, 10053.97, 9983.21, 25456.63, 19199.50, -28033.09, -18270.00, -76725.76, 0.000, 0.000, 0.000, 19:25:51.614
236, 4108.65, 7468.63, 7759.81, 28064.67, 24000.99, -22742.77, -13016.63, -71451.84, 0.000, 0.000, 0.000, 19:25:51.615
237, 985.29, 4975.16, 5969.35, 31360.86, 31361.87, -13250.18, -3464.45, -61650.73, 0.000, 0.000, 0.000, 19:25:51.615
238, 3655.18, 6991.71, 5238.94, 30437.53, 30715.70, -14474.48, -4870.49, -62459.40, 0.000, 0.000, 0.000, 19:25:51.615
239, 8246.21, 11050.05, 4844.54, 26102.66, 22923.19, -25985.82, -16810.34, -74869.42, 0.000, 0.000, 0.000, 19:25:51.615
240, 7545.99, 11180.61, 3997.41, 25163.39, 21119.60, -29718.68, -20789.60, -79031.12, 0.000, 0.000, 0.000, 19:25:51.615
241, 4215.74, 9010.86, 3019.36, 27611.67, 25691.90, -24094.89, -15195.14, -73402.55, 0.000, 0.000, 0.000, 19:25:51.615
242, 1678.30, 7170.33, 1842.05, 30863.38, 32130.47, -14585.07, -5624.79, -63594.89, 0.000, 0.000, 0.000, 19:25:51.615
243, 4440.22, 9179.82, 1211.33, 29526.83, 30433.31, -16081.97, -7311.05, -64739.12, 0.000, 0.000, 0.000, 19:25:51.616
244, 8429.92, 12543.08, -131.29, 24621.85, 22446.16, -27762.59, -19490.63, -77352.32, 0.000, 0.000, 0.000, 19:25:51.616
245, 7647.11, 12745.23, -2355.99, 23284.17, 20723.38, -31478.25, -23653.29, -81669.96, 0.038, 0.020, 0.976, 19:25:51.616
246, 4766.08, 11533.01, -4544.82, 25008.58, 24879.32, -25653.57, -18158.33, -76138.24, 0.000, 0.000, 0.000, 19:25:51.616
247, 2298.27, 10739.86, -7122.90, 26787.11, 29647.82, -16083.17, -8785.93, -66595.63, 0.000, 0.000, 0.000, 19:25:51.616
248, 3736.30, 12216.28, -10997.26, 23870.81, 27600.22, -18258.16, -11230.14, -68729.31, 0.000, 0.000, 0.000, 19:25:51.616
249, 5999.16, 14442.76, -15963.93, 19048.07, 21350.01, -30395.85, -23807.15, -81556.35, 0.000, 0.000, 0.000, 19:25:51.616
250, 5125.90, 15418.86, -19340.43, 17874.76, 20146.25, -33766.71, -27408.87, -85216.80, 0.000, 0.000, 0.000, 19:25:51.616
251, 3373.91, 15818.13, -22074.09, 19158.89, 23460.21, -27557.38, -21253.56, -79013.68, 0.000, 0.000, 0.000, 19:25:51.616
252, 1213.23, 15622.37, -27207.97, 20524.80, 27761.29, -17754.64, -11815.74, -69223.33, 0.000, 0.000, 0.000, 19:25:51.617
253, 750.15, 15902.75, -27965.00, 20191.29, 26223.74, -18359.97, -13991.72, -70552.54, 0.000, 0.000, 0.000, 19:25:51.617
254, 1406.04, 17144.64, -23372.71, 19373.40, 21301.01, -26036.07, -25281.14, -82544.43, 0.000, 0.000, 0.000, 19:25:51.617
255, -288.25, 17387.71, -16437.96, 20852.97, 22908.41, -24442.39, -26632.79, -84181.02, 0.034, 0.012, 0.976, 19:25:51.617
0, -2608.45, 15858.63, -10064.03, 23795.93, 28675.61, -14764.91, -17468.27, -74922.42, 0.000, 0.000, 0.000, 19:25:51.617
1, -3192.41, 9841.43, -5367.53, 25608.01, 32779.08, -3516.40, -6677.96, -62894.39, 0.000, 0.000, 0.000, 19:25:51.617
2, -2842.94, 4531.35, -5025.03, 21658.37, 28490.67, -6437.10, -12892.24, -68207.38, 0.000, 0.000, 0.000, 19:25:51.617
3, -6691.37, 5045.26, -4767.54, 19190.04, 25108.50, -10549.22, -21558.44, -78265.55, 0.000, 0.000, 0.000, 19:25:51.617
4, -8664.25, 4075.04, -1544.24, 21681.17, 29633.27, -2960.80, -14969.83, -72005.38, 0.000, 0.000, 0.000, 19:25:51.618
5, -6766.48, 4756.70, 1035.87, 21316.93, 32281.95, 2573.89, -10119.75, -65697.50, 0.000, 0.000, 0.000, 19:25:51.618
6, -4267.75, 7307.10, 2515.96, 18620.88, 30840.73, 3379.94, -12707.66, -67642.81, 0.000, 0.000, 0.000, 19:25:51.618
7, -2943.48, 9107.40, 3706.88, 17461.81, 30499.31, 6228.89, -12348.74, -68341.15, 0.000, 0.000, 0.000, 19:25:51.618
8, -1837.85, 10587.98, 3805.34, 16282.02, 29353.05, 7672.77, -12061.25, -68251.88, 0.000, 0.000, 0.000, 19:25:51.618
9, 139.54, 9858.17, 3290.85, 15264.54, 28337.88, 9765.54, -12009.82, -68118.37, 0.026, 0.008, 0.974, 19:25:51.618
10, 2875.86, 8467.87, 1943.42, 14737.69, 27954.25, 13112.11, -11744.54, -67752.65, 0.000, 0.000, 0.000, 19:25:51.618
11, 6220.29, 8199.94, 284.14, 14712.77, 26935.08, 14109.72, -12289.06, -68330.42, 0.000, 0.000, 0.000, 19:25:51.619
12, 8595.99, 7384.55, -1253.33, 14467.03, 25209.35, 14145.39, -12472.21, -69462.76, 0.000, 0.000, 0.000, 19:25:51.619
13, 9180.71, 6083.16, -2339.15, 13910.41, 23755.79, 15428.60, -10564.13, -69641.06, 0.000, 0.000, 0.000, 19:25:51.619
14, 9532.53, 5067.77, -2251.98, 13747.08, 23635.09, 16499.05, -7431.55, -69438.42, 0.000, 0.000, 0.000, 19:25:51.619
15, 10002.43, 3367.07, -2471.99, 13590.33, 23787.82, 15459.23, -5460.33, -69413.14, 0.000, 0.000, 0.000, 19:25:51.619
16, 10841.58, 2732.68, -3804.07, 13717.02, 23278.29, 13954.42, -4598.16, -70129.13, 0.000, 0.000, 0.000, 19:25:51.619
17, 11784.87, 2863.46, -4562.80, 14337.84, 22950.44, 14840.53, -2284.19, -71010.30, 0.000, 0.000, 0.000, 19:25:51.619
18, 12690.07, 2149.10, -5296.22, 14157.13, 22833.42, 16908.47, 1197.72, -70849.02, 0.000, 0.000, 0.000, 19:25:51.619
19, 13221.93, 1063.18, -5784.72, 13478.97, 23276.41, 17293.07, 3282.76, -70538.05, 0.022, 0.012, 0.976, 19:25:51.620
20, 14031.78, 877.69, -4729.70, 13973.77, 23762.72, 17635.50, 4575.74, -70027.77, 0.000, 0.000, 0.000, 19:25:51.620
21, 14597.72, 1087.70, -4064.15, 15448.85, 23738.18, 18946.50, 6514.71, -70362.13, 0.000, 0.000, 0.000, 19:25:51.620
22, 14810.51, 1349.67, -2708.00, 16727.17, 23651.97, 19823.83, 9282.81, -71279.87, 0.000, 0.000, 0.000, 19:25:51.620
23, 15523.15, 2693.21, -242.05, 17889.17, 22973.66, 20466.51, 12592.32, -70820.59, 0.000, 0.000, 0.000, 19:25:51.620
24, 16729.59, 4009.93, 2732.28, 18636.50, 21046.63, 19693.96, 14210.01, -69989.10, 0.000, 0.000, 0.000, 19:25:51.620
25, 17390.75, 4835.91, 3712.47, 18137.32, 18403.26, 18479.79, 14400.25, -69746.72, 0.000, 0.000, 0.000, 19:25:51.620
26, 18209.21, 6094.18, 2998.58, 16319.25, 15989.12, 18080.26, 15234.46, -70656.81, 0.000, 0.000, 0.000, 19:25:51.620
27, 20097.30, 7923.78, 2532.09, 14879.24, 15551.14, 19476.95, 17153.42, -72095.13, 0.000, 0.000, 0.000, 19:25:51.621
28, 22401.90, 9744.47, 2371.88, 15463.34, 16740.09, 21915.39, 20346.66, -71228.46, 0.000, 0.000, 0.000, 19:25:52.087
29, 24219.68, 11031.99, 2862.61, 16308.37, 18011.95, 22547.48, 21881.08, -70137.40, 0.030, 0.012, 0.978, 19:25:52.087
30, 25225.89, 11188.25, 2099.16, 15357.03, 19356.36, 21009.03, 21661.63, -69760.77, 0.000, 0.000, 0.000, 19:25:52.087
31, 25695.81, 10830.45, 206.71, 13158.09, 20357.88, 17858.33, 19845.13, -71098.28, 0.000, 0.000, 0.000, 19:25:52.087
32, 26287.06, 10438.47, -1865.95, 11268.16, 20149.87, 15471.56, 18359.52, -73581.31, 0.000, 0.000, 0.000, 19:25:52.087
33, 27171.81, 10390.05, -3265.72, 9908.95, 17616.64, 15314.43, 18090.88, -73609.08, 0.000, 0.000, 0.000, 19:25:52.087
34, 27563.92, 10262.80, -3959.07, 8258.21, 13675.29, 15748.39, 17111.58, -73057.63, 0.000, 0.000, 0.000, 19:25:52.088
35, 28457.32, 9875.56, -4667.65, 7438.30, 11132.89, 16371.40, 17107.02, -71222.85, 0.000, 0.000, 0.000, 19:25:52.088
36, 29024.83, 9375.46, -5299.89, 7301.55, 9638.88, 16655.45, 16947.23, -70297.06, 0.000, 0.000, 0.000, 19:25:52.088
37, 29317.24, 9378.93, -5021.36, 7474.38, 9326.69, 16664.52, 16683.01, -71539.64, 0.000, 0.000, 0.000, 19:25:52.088
38, 29227.90, 9461.36, -4854.62, 7909.50, 10851.53, 16151.39, 16275.74, -72243.49, 0.000, 0.000, 0.000, 19:25:52.088
39, 28372.50, 9453.87, -5183.35, 8192.94, 12819.13, 15281.35, 16085.23, -70277.88, 0.032, 0.012, 0.976, 19:25:52.088
40, 27814.42, 9811.07, -4830.57, 8478.98, 14609.19, 14746.74, 16742.08, -67058.63, 0.000, 0.000, 0.000, 19:25:52.088
41, 28084.36, 9567.13, -5016.22, 8913.16, 15512.62, 13960.99, 17455.44, -64130.41, 0.000, 0.000, 0.000, 19:25:52.088
42, 28663.79, 9045.93, -5157.64, 9612.37, 16275.74, 14192.33, 18857.70, -61855.84, 0.000, 0.000, 0.000, 19:25:52.089
43, 29110.35, 8969.13, -4842.21, 10121.83, 17141.51, 15271.07, 20967.03, -59388.20, 0.000, 0.000, 0.000, 19:25:52.089
44, 28480.01, 8815.59, -4820.53, 9706.87, 17987.07, 15941.24, 22216.05, -57023.95, 0.000, 0.000, 0.000, 19:25:52.089
45, 27340.25, 8613.16, -5522.36, 9000.69, 18790.73, 16427.28, 22644.24, -55424.01, 0.000, 0.000, 0.000, 19:25:52.089
46, 26013.09, 8672.83, -6586.99, 8374.71, 19505.27, 16651.47, 22302.32, -55257.58, 0.000, 0.000, 0.000, 19:25:52.089
47, 26861.48, 9223.20, -8382.75, 7737.61, 20861.91, 16887.97, 21736.89, -55074.72, 0.000, 0.000, 0.000, 19:25:52.089
48, 28850.85, 10024.02, -9833.63, 4987.48, 23132.91, 16876.71, 21443.23, -54035.16, 0.000, 0.000, 0.000, 19:25:52.089
49, 29583.85, 10705.46, -9843.53, 1442.98, 24717.81, 16468.45, 21172.20, -54379.20, 0.032, 0.010, 0.980, 19:25:52.090
50, 29817.72, 10772.67, -9815.05, 73.00, 25269.52, 15682.99, 20664.10, -53582.81, 0.000, 0.000, 0.000, 19:25:52.090
51, 30339.61, 10609.25, -9881.53, -130.89, 25815.24, 14876.45, 20291.61, -51546.54, 0.000, 0.000, 0.000, 19:25:52.090
52, 31457.04, 10709.19, -9568.45, 651.13, 26459.03, 14456.06, 20328.75, -48115.19, 0.000, 0.000, 0.000, 19:25:52.090
53, 32605.52, 11432.76, -8634.97, 501.15, 26903.54, 14505.90, 20449.81, -42969.35, 0.000, 0.000, 0.000, 19:25:52.090
54, 33537.88, 12378.53, -7704.80, -512.55, 27036.54, 14792.96, 20819.00, -38155.03, 0.000, 0.000, 0.000, 19:25:52.090
55, 34407.47, 13029.95, -7834.80, -1207.60, 28351.02, 15456.63, 21012.61, -34837.09, 0.000, 0.000, 0.000, 19:25:52.090
56, 34742.46, 13006.55, -8543.93, -892.48, 29459.35, 15923.58, 20647.04, -33025.57, 0.000, 0.000, 0.000, 19:25:52.090
57, 36057.41, 12959.29, -8056.22, -460.54, 30886.36, 16576.54, 20485.17, -31153.95, 0.000, 0.000, 0.000, 19:25:52.091
58, 38430.98, 13561.50, -6551.68, -346.52, 32634.73, 17660.58, 20544.47, -28995.82, 0.000, 0.000, 0.000, 19:25:52.091
59, 39825.62, 14218.73, -5579.82, 2818.98, 33956.84, 18068.41, 20004.65, -28491.59, 0.032, 0.014, 0.972, 19:25:52.091
60, 40188.39, 14383.35, -5169.00, 5564.20, 34734.34, 17566.15, 18902.71, -28715.29, 0.000, 0.000, 0.000, 19:25:52.091
61, 40300.93, 14596.81, -4789.78, 6708.29, 34236.48, 16787.97, 17831.42, -29065.80, 0.000, 0.000, 0.000, 19:25:52.091
62, 40708.92, 15144.00, -4494.44, 8127.12, 33210.18, 15890.17, 18047.20, -29460.65, 0.000, 0.000, 0.000, 19:25:52.091
63, 41093.70, 15140.02, -5245.89, 9819.12, 32562.98, 14807.43, 18814.33, -28898.59, 0.000, 0.000, 0.000, 19:25:52.091
64, 41208.97, 14887.42, -6254.31, 10691.64, 31943.17, 14058.60, 19181.04, -27112.15, 0.000, 0.000, 0.000, 19:25:52.092
65, 41428.15, 15134.86, -5866.46, 11460.48, 29257.40, 13255.95, 19629.88, -24357.19, 0.000, 0.000, 0.000, 19:25:52.092
66, 41351.98, 15107.19, -5229.91, 11717.32, 24296.08, 12471.33, 19798.01, -21899.41, 0.000, 0.000, 0.000, 19:25:52.092
67, 41379.47, 15358.13, -4409.24, 11450.22, 19403.35, 12572.61, 20114.42, -19564.64, 0.000, 0.000, 0.000, 19:25:52.092
68, 41508.20, 15691.57, -3290.53, 10830.78, 17548.22, 12656.58, 20699.23, -16202.80, 0.000, 0.000, 0.000, 19:25:52.092
69, 41418.43, 16018.53, -2425.03, 9946.66, 17542.19, 12344.44, 21105.50, -13348.33, 0.034, 0.020, 0.976, 19:25:52.092
70, 41414.63, 16452.07, -1963.65, 8800.06, 19298.74, 12413.69, 21380.13, -11904.96, 0.000, 0.000, 0.000, 19:25:52.092
71, 41178.42, 17083.57, -973.04, 7416.53, 21210.44, 12795.01, 21355.93, -12479.45, 0.000, 0.000, 0.000, 19:25:52.092
72, 41042.74, 18107.57, 759.02, 7405.38, 21298.37, 13357.78, 21135.05, -14603.71, 0.000, 0.000, 0.000, 19:25:52.093
73, 41020.23, 18880.65, 2347.56, 8129.91, 19940.66, 13743.86, 21273.96, -16266.73, 0.000, 0.000, 0.000, 19:25:52.093
74, 40655.83, 19575.70, 3238.61, 8439.26, 17665.86, 12536.56, 21962.04, -16691.32, 0.000, 0.000, 0.000, 19:25:52.093
75, 40576.89, 20389.91, 4004.92, 8035.43, 16161.16, 11286.76, 22781.75, -14542.58, 0.000, 0.000, 0.000, 19:25:52.093
76, 40493.04, 20846.96, 4928.69, 7501.98, 15720.25, 11550.46, 23062.04, -11429.21, 0.000, 0.000, 0.000, 19:25:52.093
77, 40419.75, 21154.45, 5239.47, 7428.76, 15495.82, 12692.53, 22998.78, -10338.04, 0.000, 0.000, 0.000, 19:25:52.093
78, 40377.31, 21369.36, 4766.69, 7970.68, 15958.81, 14262.40, 22401.90, -11411.75, 0.000, 0.000, 0.000, 19:25:52.093
79, 40155.49, 21718.21, 5115.73, 8640.29, 17898.63, 15982.48, 20765.42, -14243.94, 0.000, 0.000, 0.000, 19:25:52.093
80, 40284.84, 22762.55, 6908.41, 9510.29, 20591.57, 16142.34, 20323.75, -15470.63, 0.040, 0.012, 0.966, 19:25:52.094
81, 40527.31, 23556.55, 8801.51, 10552.42, 23025.71, 16192.97, 21175.24, -13416.21, 0.000, 0.000, 0.000, 19:25:52.094
82, 41199.98, 24243.30, 10920.12, 11771.43, 25146.96, 17048.30, 23064.38, -8606.74, 0.000, 0.000, 0.000, 19:25:52.094
83, 41898.81, 24932.03, 13249.17, 12908.22, 27032.69, 17052.17, 24816.58, -4036.08, 0.000, 0.000, 0.000, 19:25:52.094
84, 41951.18, 24971.21, 14860.00, 13309.28, 27812.14, 16830.84, 25634.70, -2807.58, 0.000, 0.000, 0.000, 19:25:52.094
85, 41564.61, 24563.70, 15509.85, 12614.99, 27446.49, 17346.14, 25279.67, -5512.10, 0.000, 0.000, 0.000, 19:25:52.094
86, 40880.56, 23858.03, 15776.44, 11497.98, 23258.17, 19779.42, 24312.39, -6863.93, 0.000, 0.000, 0.000, 19:25:52.094
87, 40314.59, 23295.01, 15724.21, 11229.65, 17252.60, 21387.24, 23683.10, -6099.61, 0.000, 0.000, 0.000, 19:25:52.094
88, 40166.62, 23154.60, 15366.26, 11425.52, 16590.83, 21030.15, 24034.56, -5349.73, 0.000, 0.000, 0.000, 19:25:52.095
89, 40090.51, 23067.31, 15221.36, 11893.07, 20409.73, 21460.42, 24743.51, -7756.99, 0.000, 0.000, 0.000, 19:25:52.095
90, 40002.89, 22951.80, 15633.77, 12464.09, 24102.24, 21902.74, 24397.80, -11017.53, 0.042, 0.012, 0.968, 19:25:52.095
91, 39948.78, 22864.85, 16524.69, 13317.08, 27640.75, 21285.25, 23547.90, -11308.33, 0.000, 0.000, 0.000, 19:25:52.095
92, 40188.66, 23093.69, 17822.41, 14695.40, 30816.48, 20222.96, 23243.40, -8924.05, 0.000, 0.000, 0.000, 19:25:52.095
93, 40301.82, 23214.14, 18650.03, 16039.61, 32280.14, 19534.71, 22659.15, -7177.10, 0.000, 0.000, 0.000, 19:25:52.095
94, 39790.89, 22701.86, 18663.33, 16670.29, 31631.38, 18238.13, 21589.57, -8194.64, 0.000, 0.000, 0.000, 19:25:52.095
95, 39329.30, 22215.87, 18804.10, 17310.38, 30591.07, 17739.77, 20694.50, -10421.43, 0.000, 0.000, 0.000, 19:25:52.095
96, 38944.11, 21798.29, 18700.97, 17969.75, 29725.94, 17735.51, 20329.04, -11471.34, 0.000, 0.000, 0.000, 19:25:52.096
97, 38642.23, 21494.64, 17709.96, 18852.40, 28533.70, 16909.59, 20257.29, -9846.10, 0.000, 0.000, 0.000, 19:25:52.096
98, 38610.87, 21474.13, 17170.81, 19820.54, 28172.27, 16285.61, 21149.62, -7938.27, 0.000, 0.000, 0.000, 19:25:52.096
99, 38209.73, 21070.29, 16656.54, 19632.77, 28036.46, 15199.23, 22058.78, -8989.87, 0.000, 0.000, 0.000, 19:25:52.096
100, 37661.57, 20498.14, 16678.40, 19264.59, 26842.52, 13921.07, 21589.73, -11380.48, 0.040, 0.014, 0.984, 19:25:52.096
101, 36961.60, 19770.86, 16068.18, 18944.98, 25751.94, 11938.36, 18878.69, -11043.04, 0.000, 0.000, 0.000, 19:25:52.096
102, 36729.12, 19537.70, 15719.27, 19972.13, 25862.71, 12588.95, 15813.10, -9261.38, 0.000, 0.000, 0.000, 19:25:52.096
103, 36643.89, 19467.54, 15537.66, 22016.71, 25500.72, 14262.51, 15767.99, -10118.66, 0.000, 0.000, 0.000, 19:25:52.097
104, 36449.95, 19267.49, 15215.91, 23744.57, 25045.87, 11376.23, 19652.55, -11383.72, 0.000, 0.000, 0.000, 19:25:52.097
105, 35998.33, 18786.93, 14604.38, 23545.64, 24328.51, 6405.36, 21894.36, -11111.28, 0.000, 0.000, 0.000, 19:25:52.097
106, 35357.53, 18118.30, 13798.85, 22024.69, 22762.28, 5791.67, 21781.80, -11953.06, 0.000, 0.000, 0.000, 19:25:52.097
107, 34866.62, 17634.54, 13193.21, 21295.76, 22294.99, 8116.86, 21798.18, -15802.39, 0.000, 0.000, 0.000, 19:25:52.097
108, 34999.10, 17780.01, 13236.23, 21901.94, 23707.15, 12381.30, 22520.92, -17564.58, 0.000, 0.000, 0.000, 19:25:52.097
109, 35165.02, 17931.26, 13277.32, 23280.77, 25537.54, 14564.31, 22788.07, -17253.22, 0.000, 0.000, 0.000, 19:25:52.097
110, 34952.52, 17683.96, 12904.31, 23728.39, 26390.28, 14035.71, 22184.64, -17810.61, 0.046, 0.020, 0.984, 19:25:52.098
111, 34420.07, 17121.68, 12206.80, 23294.27, 26606.69, 13181.49, 21195.55, -19083.58, 0.000, 0.000, 0.000, 19:25:52.098
112, 34225.41, 16929.99, 11899.60, 23643.29, 27976.78, 13186.54, 20178.95, -18740.44, 0.000, 0.000, 0.000, 19:25:52.098
113, 34102.59, 16827.53, 11690.81, 23875.42, 29800.15, 13176.55, 19277.31, -18113.16, 0.000, 0.000, 0.000, 19:25:52.098
114, 34028.94, 16745.57, 11493.36, 23699.82, 31715.31, 12884.84, 18083.05, -15676.48, 0.000, 0.000, 0.000, 19:25:52.098
115, 33760.86, 16444.38, 11060.83, 23355.67, 31783.11, 11930.31, 16221.87, -13587.02, 0.000, 0.000, 0.000, 19:25:52.098
116, 32961.02, 15617.41, 10091.99, 22674.90, 30401.08, 9919.82, 14549.58, -15084.57, 0.000, 0.000, 0.000, 19:25:52.098
117, 32429.23, 15095.67, 9450.72, 22544.26, 30355.95, 8709.83, 14747.75, -17108.07, 0.000, 0.000, 0.000, 19:25:52.099
118, 32304.10, 14990.89, 9241.08, 22178.38, 30919.46, 8627.10, 15843.65, -16457.81, 0.000, 0.000, 0.000, 19:25:52.099
119, 32041.31, 14722.94, 8854.78, 21792.99, 30485.05, 9077.56, 15930.38, -15895.91, 0.000, 0.000, 0.000, 19:25:52.099
120, 31849.74, 14496.07, 8501.84, 21673.44, 29702.88, 9819.81, 15462.96, -15182.44, 0.046, 0.014, 0.984, 19:25:52.099
121, 31510.73, 14120.00, 7995.96, 21158.59, 29680.84, 9644.46, 14345.66, -14507.20, 0.000, 0.000, 0.000, 19:25:52.099
122, 31203.23, 13818.09, 7579.88, 20673.87, 30234.44, 8433.96, 13744.67, -13316.74, 0.000, 0.000, 0.000, 19:25:52.099
123, 31080.50, 13713.55, 7372.03, 20735.96, 31026.10, 8013.03, 14589.63, -12415.92, 0.000, 0.000, 0.000, 19:25:52.099
124, 31059.80, 13681.28, 7227.66, 20842.42, 32558.51, 7000.52, 16582.33, -11142.05, 0.000, 0.000, 0.000, 19:25:52.099
125, 31178.31, 13760.38, 7185.44, 21603.09, 33917.50, 7530.26, 17205.68, -10234.13, 0.000, 0.000, 0.000, 19:25:52.100
126, 31112.17, 13651.51, 6952.47, 22752.09, 34429.96, 9455.12, 17531.97, -11610.64, 0.000, 0.000, 0.000, 19:25:52.100
127, 30725.58, 13269.89, 6458.54, 22814.00, 34204.74, 10604.29, 17805.38, -14357.82, 0.000, 0.000, 0.000, 19:25:52.100
128, 30358.12, 12928.00, 6008.80, 22450.87, 33234.11, 11339.06, 17858.80, -15543.47, 0.000, 0.000, 0.000, 19:25:52.100
129, 30081.38, 12646.19, 5608.97, 22116.85, 32641.95, 12053.94, 18048.94, -15159.31, 0.000, 0.000, 0.000, 19:25:52.100
130, 29701.29, 12236.22, 5068.37, 21636.11, 32130.25, 12458.08, 18217.81, -17355.32, 0.048, 0.012, 0.976, 19:25:52.100
131, 29367.38, 11867.75, 4569.14, 21196.16, 31879.33, 12080.22, 17694.91, -16982.65, 0.000, 0.000, 0.000, 19:25:52.100
132, 29180.18, 11685.96, 4276.13, 20975.19, 32025.04, 12045.78, 17212.70, -14608.52, 0.000, 0.000, 0.000, 19:25:52.101
133, 29166.01, 11691.44, 4179.80, 20953.02, 32429.92, 12724.27, 17099.58, -11940.57, 0.000, 0.000, 0.000, 19:25:52.101
134, 29156.78, 11671.34, 4046.74, 20882.77, 33199.36, 13462.41, 17125.41, -10083.50, 0.000, 0.000, 0.000, 19:25:52.101
135, 29033.19, 11511.73, 3760.79, 20652.21, 33884.89, 14072.12, 17987.52, -11057.16, 0.000, 0.000, 0.000, 19:25:52.101
136, 28868.04, 11308.46, 3429.70, 20377.06, 34074.56, 15115.17, 18771.06, -11756.62, 0.000, 0.000, 0.000, 19:25:52.101
137, 28627.58, 11074.31, 3083.87, 20107.14, 34293.70, 16053.65, 18101.80, -11316.08, 0.000, 0.000, 0.000, 19:25:52.101
138, 28263.94, 10736.28, 2639.99, 19746.58, 34720.84, 16632.87, 16591.77, -11284.30, 0.000, 0.000, 0.000, 19:25:52.101
139, 27754.45, 10223.93, 2008.37, 19189.20, 34687.09, 16649.41, 15430.73, -12879.43, 0.000, 0.000, 0.000, 19:25:52.101
140, 27352.63, 9788.45, 1442.87, 18683.85, 34768.56, 16001.90, 14473.56, -14293.52, 0.044, 0.010, 0.974, 19:25:52.102
141, 26976.74, 9376.74, 899.34, 18199.88, 35510.19, 15704.38, 13782.69, -15054.88, 0.000, 0.000, 0.000, 19:25:52.102
142, 26452.80, 8863.79, 273.23, 17659.35, 36315.86, 15937.49, 13199.13, -17968.77, 0.000, 0.000, 0.000, 19:25:52.102
143, 26208.63, 8640.00, -47.99, 17419.63, 37306.22, 16447.82, 13843.69, -19324.22, 0.000, 0.000, 0.000, 19:25:52.102
144, 26289.83, 8707.10, -87.75, 17439.81, 37836.88, 17748.02, 15066.89, -17921.43, 0.000, 0.000, 0.000, 19:25:52.102
145, 26250.22, 8626.97, -289.90, 17286.97, 36404.04, 18776.56, 15933.04, -16472.81, 0.000, 0.000, 0.000, 19:25:52.102
146, 25857.37, 8197.86, -846.75, 16788.71, 34890.85, 18929.87, 16705.92, -17160.35, 0.000, 0.000, 0.000, 19:25:52.102
147, 25522.70, 7871.30, -1283.08, 16436.31, 34903.30, 19318.03, 17716.51, -18568.80, 0.000, 0.000, 0.000, 19:25:52.103
148, 25346.92, 7715.82, -1537.44, 16267.04, 35247.87, 19010.29, 18167.18, -16981.76, 0.000, 0.000, 0.000, 19:25:52.568
149, 25333.85, 7689.98, -1672.45, 16195.38, 35108.02, 18558.74, 19406.46, -14371.93, 0.000, 0.000, 0.000, 19:25:52.569
150, 25167.59, 7485.67, -2003.48, 15917.44, 34828.69, 17430.58, 19455.07, -13177.49, 0.164, 0.020, 0.962, 19:25:52.569
151, 24741.79, 7026.36, -2595.42, 15386.11, 34308.32, 16687.72, 18796.43, -13285.14, 0.000, 0.000, 0.000, 19:25:52.569
152, 24360.61, 6659.21, -3072.40, 14992.25, 33934.73, 17347.12, 18948.98, -14077.71, 0.000, 0.000, 0.000, 19:25:52.569
153, 23922.24, 6248.30, -3586.69, 14568.06, 33531.48, 18207.87, 19136.47, -15581.98, 0.000, 0.000, 0.000, 19:25:52.569
154, 23496.33, 5818.11, -4135.85, 14093.76, 33074.34, 19329.65, 18607.25, -17200.09, 0.000, 0.000, 0.000, 19:25:52.569
155, 23361.62, 5646.79, -4435.48, 13848.78, 32846.34, 20794.92, 18595.04, -18194.19, 0.000, 0.000, 0.000, 19:25:52.569
156, 23532.38, 5774.82, -4428.31, 13901.31, 32922.49, 22446.00, 20625.52, -16973.15, 0.000, 0.000, 0.000, 19:25:52.569
157, 23735.56, 5979.49, -4319.30, 14079.92, 33132.44, 24876.96, 23016.87, -15187.47, 0.000, 0.000, 0.000, 19:25:52.570
158, 23761.40, 6020.75, -4370.01, 14110.30, 33193.14, 25935.02, 24393.64, -12951.23, 0.000, 0.000, 0.000, 19:25:52.570
159, 23583.48, 5832.40, -4671.00, 13878.20, 32982.01, 25052.75, 25061.29, -11103.59, 0.000, 0.000, 0.000, 19:25:52.570
160, 23429.12, 5641.33, -4987.84, 13613.02, 32733.97, 24540.61, 25061.42, -10687.62, 0.134, 0.028, 0.964, 19:25:52.570
161, 23208.62, 5384.71, -5368.64, 13283.48, 32418.72, 24416.62, 25710.81, -10272.88, 0.000, 0.000, 0.000, 19:25:52.570
162, 22839.10, 5025.54, -5835.28, 12900.55, 32054.39, 23847.32, 26285.85, -10113.07, 0.000, 0.000, 0.000, 19:25:52.570
163, 22290.86, 4503.61, -6465.58, 12367.82, 31540.68, 22691.24, 25934.30, -10679.86, 0.000, 0.000, 0.000, 19:25:52.570
164, 21662.17, 3875.26, -7217.60, 11695.04, 30878.55, 21292.00, 25398.62, -12413.29, 0.000, 0.000, 0.000, 19:25:52.570
165, 21171.88, 3356.63, -7870.36, 11104.50, 30294.53, 19503.19, 26120.67, -15002.69, 0.000, 0.000, 0.000, 19:25:52.571
166, 20747.20, 2903.29, -8456.60, 10580.53, 29780.44, 17740.13, 27236.27, -16037.06, 0.000, 0.000, 0.000, 19:25:52.571
167, 20397.26, 2565.85, -8903.04, 10218.59, 29439.88, 17137.02, 27696.58, -15416.87, 0.000, 0.000, 0.000, 19:25:52.571
168, 20138.12, 2328.54, -9241.31, 9966.44, 29215.05, 16955.36, 27140.18, -12977.11, 0.000, 0.000, 0.000, 19:25:52.571
169, 19884.25, 2067.60, -9618.45, 9659.17, 28928.65, 16703.10, 26476.62, -11336.29, 0.000, 0.000, 0.000, 19:25:52.571
170, 19652.01, 1802.96, -10009.71, 9323.11, 28606.03, 16410.87, 25838.84, -11225.31, 0.000, 0.000, 0.000, 19:25:52.571
171, 19278.51, 1400.69, -10541.66, 8851.09, 28145.00, 16243.97, 25627.48, -11480.73, 0.098, 0.026, 0.970, 19:25:52.571
172, 18830.65, 967.99, -11088.28, 8392.81, 27705.17, 16584.39, 25853.10, -12558.75, 0.000, 0.000, 0.000, 19:25:52.571
173, 18371.10, 531.95, -11630.91, 7944.73, 27274.96, 16386.04, 26389.14, -14224.07, 0.000, 0.000, 0.000, 19:25:52.572
174, 17920.26, 76.96, -12206.67, 7445.43, 26788.97, 15445.66, 26499.42, -15247.58, 0.000, 0.000, 0.000, 19:25:52.572
175, 17585.37, -290.73, -12705.54, 7007.16, 26362.65, 14485.79, 26145.37, -15550.91, 0.000, 0.000, 0.000, 19:25:52.572
176, 17181.07, -725.60, -13272.13, 6505.56, 25869.15, 14152.70, 26018.50, -16293.50, 0.000, 0.000, 0.000, 19:25:52.572
177, 16669.66, -1222.91, -13881.93, 5985.98, 25365.38, 14405.21, 25835.51, -18158.36, 0.000, 0.000, 0.000, 19:25:52.572
178, 16050.92, -1816.79, -14586.32, 5378.46, 24775.66, 14260.14, 25185.52, -20227.93, 0.000, 0.000, 0.000, 19:25:52.572
179, 15386.74, -2482.92, -15376.52, 4667.13, 24074.86, 13358.32, 24232.08, -22183.66, 0.000, 0.000, 0.000, 19:25:52.572
180, 14778.50, -3117.42, -16146.39, 3963.93, 23377.76, 12108.30, 23193.11, -24569.75, 0.000, 0.000, 0.000, 19:25:52.573
181, 14246.42, -3672.32, -16837.37, 3342.81, 22763.48, 11535.02, 22883.00, -26586.42, 0.068, 0.006, 0.976, 19:25:52.573
182, 13866.55, -4034.40, -17309.26, 2958.21, 22396.11, 12196.30, 23655.07, -27911.45, 0.000, 0.000, 0.000, 19:25:52.573
183, 13713.11, -4168.02, -17542.07, 2809.08, 22271.32, 13259.12, 24987.71, -28042.54, 0.000, 0.000, 0.000, 19:25:52.573
184, 13399.20, -4488.50, -17980.55, 2441.44, 21913.34, 12402.60, 26198.95, -28177.14, 0.000, 0.000, 0.000, 19:25:52.573
185, 13118.48, -4800.62, -18422.46, 2056.43, 22319.22, 11079.33, 26838.77, -29185.21, 0.000, 0.000, 0.000, 19:25:52.573
186, 13049.55, -4903.35, -18649.38, 1887.58, 25152.22, 11060.04, 27076.08, -29939.76, 0.000, 0.000, 0.000, 19:25:52.574
187, 12766.94, -5171.55, -19022.88, 1599.69, 28345.83, 11720.00, 25880.06, -31760.55, 0.000, 0.000, 0.000, 19:25:52.574
188, 12436.15, -5478.95, -19432.03, 1278.30, 31324.67, 14218.79, 25858.13, -37107.61, 0.000, 0.000, 0.000, 19:25:52.574
189, 11876.76, -6041.01, -20116.55, 674.60, 32629.81, 15606.32, 28191.79, -45793.71, 0.000, 0.000, 0.000, 19:25:52.574
190, 11197.96, -6746.58, -20958.43, -94.30, 31946.65, 11707.42, 29023.56, -48715.49, 0.000, 0.000, 0.000, 19:25:52.574
191, 10313.00, -7650.26, -21999.79, -1058.65, 29838.04, 7363.09, 20827.56, -41982.77, 0.048, 0.006, 0.980, 19:25:52.574
192, 9399.89, -8536.29, -23001.35, -1965.48, 28632.79, 6141.32, 15530.68, -41335.35, 0.000, 0.000, 0.000, 19:25:52.574
193, 8972.50, -8939.51, -23509.54, -2388.08, 27451.07, 6088.46, 16902.59, -42082.75, 0.000, 0.000, 0.000, 19:25:52.575
194, 8615.99, -9302.48, -23993.61, -2800.49, 26019.71, 5153.22, 17013.77, -40790.34, 0.000, 0.000, 0.000, 19:25:52.575
195, 8143.03, -9803.79, -24632.00, -3370.44, 24818.41, 2353.93, 14500.87, -37586.78, 0.000, 0.000, 0.000, 19:25:52.575
196, 7642.31, -10330.44, -25290.37, -3957.80, 24135.23, -249.60, 12672.32, -35442.07, 0.000, 0.000, 0.000, 19:25:52.575
197, 7168.05, -10787.17, -25857.37, -4440.55, 23360.19, 139.94, 10076.23, -33933.66, 0.000, 0.000, 0.000, 19:25:52.575
198, 6557.51, -11371.09, -26555.23, -5049.86, 20214.43, 1932.44, 6759.01, -32616.02, 0.000, 0.000, 0.000, 19:25:52.576
199, 5915.14, -12016.21, -27326.62, -5488.74, 15924.59, 2621.37, 4204.54, -31578.14, 0.000, 0.000, 0.000, 19:25:52.576
200, 5706.71, -12261.25, -27696.13, -3481.53, 12781.87, 1655.10, 3203.74, -29059.93, 0.000, 0.000, 0.000, 19:25:52.576
201, 5652.11, -12350.63, -27905.19, 1204.67, 10812.28, 380.00, 2186.87, -26362.47, 0.072, 0.022, 0.994, 19:25:52.576
202, 5482.75, -12507.81, -28171.89, 5897.98, 11248.16, -4719.50, 1755.26, -24838.51, 0.000, 0.000, 0.000, 19:25:52.576
203, 5545.11, -12429.49, -28199.21, 9199.46, 12138.49, -6740.93, 2452.32, -23222.01, 0.000, 0.000, 0.000, 19:25:52.576
204, 5417.97, -12566.84, -28455.16, 11128.31, 11946.74, -10064.57, 2601.47, -20116.50, 0.000, 0.000, 0.000, 19:25:52.576
205, 5118.15, -12897.22, -28915.27, 11948.93, 11468.52, -13260.64, 2214.68, -18095.21, 0.000, 0.000, 0.000, 19:25:52.577
206, 4691.61, -13347.30, -29497.06, 11735.58, 12486.53, -16779.65, 1187.06, -16020.39, 0.000, 0.000, 0.000, 19:25:52.577
207, 4357.45, -13666.28, -29936.83, 11969.34, 11639.98, -17766.53, 313.66, -14523.58, 0.000, 0.000, 0.000, 19:25:52.577
208, 3890.83, -14111.68, -30028.74, 11615.33, 7467.45, -16504.48, -1366.72, -12573.91, 0.000, 0.000, 0.000, 19:25:52.577
209, 4905.34, -13126.24, -20930.17, 12786.40, 8217.51, -12998.97, -730.81, -9503.65, 0.000, 0.000, 0.000, 19:25:52.577
210, 6617.84, -11473.13, -5304.11, 13741.90, 10778.08, -10182.49, 2926.76, -8131.70, 0.000, 0.000, 0.000, 19:25:52.577
211, 7538.26, -10593.34, 4058.27, 15067.62, 12685.40, -8535.42, 5709.26, -7715.42, 0.050, 0.014, 0.968, 19:25:52.577
212, 8335.39, -9804.15, 9280.53, 16655.02, 14352.23, -6180.35, 7213.94, -5358.03, 0.000, 0.000, 0.000, 19:25:52.577
213, 8570.87, -9569.09, 11240.56, 16099.54, 13878.69, -4002.42, 7843.61, -3573.42, 0.000, 0.000, 0.000, 19:25:52.578
214, 8325.55, -9826.47, 11820.61, 14624.30, 12573.88, -3318.36, 7551.38, -2372.28, 0.000, 0.000, 0.000, 19:25:52.578
215, 7286.49, -10881.01, 9242.76, 11964.84, 11570.18, -7421.16, 6011.12, -2224.42, 0.000, 0.000, 0.000, 19:25:52.578
216, 5807.54, -12348.22, 6587.04, 9598.02, 9943.53, -11960.80, 5717.15, -2909.79, 0.000, 0.000, 0.000, 19:25:52.578
217, 5670.10, -10072.68, 6213.76, 8654.21, 8086.17, -13180.20, 7863.57, -1202.70, 0.000, 0.000, 0.000, 19:25:52.579
218, 7126.47, 2110.43, 6100.37, 7330.99, 5437.24, -13508.30, 9415.49, 1610.55, 0.000, 0.000, 0.000, 19:25:52.579
219, 7311.05, 12257.67, 6326.66, 5484.54, 4014.37, -12658.93, 10364.03, 2411.93, 0.000, 0.000, 0.000, 19:25:52.579
220, 8703.97, 18740.53, 6157.17, 5197.09, 3708.02, -10998.94, 10207.39, 4584.86, 0.000, 0.000, 0.000, 19:25:52.579
221, 6740.64, 19991.13, 5725.02, 7519.73, 5005.85, -7874.23, 9974.71, 3363.38, 0.046, 0.016, 0.976, 19:25:52.579
222, -4647.29, 16780.59, 4657.03, 11037.65, 8147.57, -2937.53, 10319.96, -5986.89, 0.000, 0.000, 0.000, 19:25:52.579
223, -13630.70, 14862.52, 1694.73, 13199.08, 9975.94, -2384.98, 10891.80, -11953.11, 0.000, 0.000, 0.000, 19:25:52.579
224, -10902.11, 14699.09, -147.59, 13698.45, 10024.58, -4469.14, 12628.02, -7805.83, 0.000, 0.000, 0.000, 19:25:52.579
225, -455.28, 14895.78, -107.62, 12818.17, 7817.05, -5344.77, 14202.37, 2863.06, 0.000, 0.000, 0.000, 19:25:52.580
226, 5839.88, 14115.19, -1025.03, 10446.69, 6330.26, -5701.13, 13398.93, 8696.37, 0.000, 0.000, 0.000, 19:25:52.580
227, 4439.70, 12454.03, -2283.07, 8755.04, 8316.32, -4989.49, 10654.61, -2177.48, 0.000, 0.000, 0.000, 19:25:52.580
228, 11624.87, 12016.10, -3454.37, 8127.72, 6201.67, -4578.89, 10935.28, -11396.13, 0.000, 0.000, 0.000, 19:25:52.580
229, 20712.22, 11143.82, -4250.25, 6156.92, 1189.11, -4834.24, 13165.65, -8784.95, 0.000, 0.000, 0.000, 19:25:52.580
230, 26608.34, 8254.30, -6296.37, 4383.94, -2056.25, -4557.21, 15861.83, 1262.27, 0.000, 0.000, 0.000, 19:25:52.580
231, 25454.08, 5945.68, -7414.50, 3934.85, 117.95, -3230.21, 16591.23, 7911.80, 0.046, 0.030, 0.988, 19:25:52.580
232, 23089.44, 5507.09, -6108.84, 5519.07, 7820.94, -1916.24, 12837.72, -2214.81, 0.000, 0.000, 0.000, 19:25:52.580
233, 21180.65, 3808.65, -6201.42, 4659.51, 10489.20, -719.23, 10856.35, -11898.26, 0.000, 0.000, 0.000, 19:25:52.581
234, 18970.73, 1764.89, -8022.53, 1480.09, 8135.14, 1601.77, 14246.26, -9613.40, 0.000, 0.000, 0.000, 19:25:52.581
235, 16969.35, 117.84, -11367.99, -3293.33, 4636.69, 3229.74, 23066.02, 226.36, 0.000, 0.000, 0.000, 19:25:52.581
236, 15830.51, -67.21, -13182.41, -5659.48, 4768.48, 3035.14, 27952.55, 7069.81, 0.000, 0.000, 0.000, 19:25:52.581
237, 14193.27, 1160.03, -9152.39, -2408.94, 8770.80, 1157.44, 17489.75, -3404.42, 0.000, 0.000, 0.000, 19:25:52.581
238, 10888.41, 1459.90, -9655.08, -2681.90, 9578.15, 1134.08, 8040.21, -13871.07, 0.000, 0.000, 0.000, 19:25:52.581
239, 7732.00, -1091.10, -14530.11, -7630.37, 9176.24, 3426.21, 10031.53, -11991.15, 0.000, 0.000, 0.000, 19:25:52.581
240, 3580.55, -7207.92, -19585.42, -12088.31, 9881.88, 8619.32, 19558.13, -2284.48, 0.000, 0.000, 0.000, 19:25:52.581
241, 297.17, -11562.20, -21883.68, -12497.33, 10836.71, 10769.88, 24932.99, 4466.84, 0.044, 0.022, 0.980, 19:25:52.582
242, 983.99, -10380.42, -18238.98, -8058.63, 10705.48, 3819.94, 14273.44, -6239.80, 0.000, 0.000, 0.000, 19:25:52.582
243, 1158.11, -12027.72, -18607.69, -7303.41, 9784.16, -1075.16, 4604.88, -17036.68, 0.000, 0.000, 0.000, 19:25:52.582
244, -1705.66, -17043.94, -24575.03, -10640.01, 8216.41, 1815.32, 6333.84, -15469.22, 0.000, 0.000, 0.000, 19:25:52.582
245, -7530.68, -21663.91, -30818.74, -14802.84, 6207.71, 10812.39, 15367.45, -6267.76, 0.000, 0.000, 0.000, 19:25:52.582
246, -10547.79, -20724.18, -29376.32, -14422.69, 5316.18, 15739.52, 20276.45, -7.82, 0.000, 0.000, 0.000, 19:25:52.582
247, -9253.93, -14039.78, -19576.30, -10133.70, 5391.33, 6133.99, 10298.05, -10087.14, 0.000, 0.000, 0.000, 19:25:52.582
248, -9207.80, -12575.49, -17163.81, -10201.09, 4843.29, -2425.99, 1373.13, -20081.41, 0.000, 0.000, 0.000, 19:25:52.583
249, -11921.79, -17014.17, -22737.69, -14689.01, 2857.29, -726.07, 2956.00, -18642.18, 0.000, 0.000, 0.000, 19:25:52.583
250, -14580.09, -22774.48, -28541.52, -18966.33, 1454.29, 8231.81, 11969.25, -9454.27, 0.000, 0.000, 0.000, 19:25:52.583
251, -13780.88, -23959.68, -27589.65, -19969.29, 186.01, 13534.41, 17259.93, -2783.33, 0.038, 0.016, 0.974, 19:25:52.583
252, -9971.63, -19162.89, -20111.72, -16803.50, -1011.80, 4095.64, 7451.09, -12679.72, 0.000, 0.000, 0.000, 19:25:52.583
253, -8836.56, -17775.83, -17826.32, -18427.27, -2026.50, -4276.36, -1282.48, -22523.90, 0.000, 0.000, 0.000, 19:25:52.583
254, -12113.37, -21693.06, -20785.60, -24923.07, -2988.58, -2327.96, 556.40, -20842.20, 0.000, 0.000, 0.000, 19:25:52.583
255, -16251.35, -27533.30, -23359.52, -33292.09, -4257.05, 6412.18, 9347.70, -11824.27, 0.000, 0.000, 0.000, 19:25:52.584
0, -18181.67, -29563.45, -20917.52, -37619.46, -5572.56, 11155.02, 14063.52, -5600.12, 0.000, 0.000, 0.000, 19:25:52.584
1, -15721.64, -23629.48, -14844.89, -34760.11, -5454.59, 1764.65, 4297.79, -15505.05, 0.000, 0.000, 0.000, 19:25:52.584
2, -15888.02, -21983.59, -14964.51, -34244.23, -5843.77, -6100.66, -4057.38, -25068.06, 0.000, 0.000, 0.000, 19:25:52.584
3, -20033.35, -26509.17, -20513.78, -37359.44, -6960.47, -4160.11, -2193.26, -23391.84, 0.000, 0.000, 0.000, 19:25:52.584
4, -24273.99, -32031.14, -27883.78, -41280.92, -8003.65, 2988.12, 6545.28, -14324.76, 0.000, 0.000, 0.000, 19:25:52.584
5, -25013.81, -32218.34, -30215.18, -41728.63, -7957.53, 6879.40, 11366.33, -7863.61, 0.000, 0.000, 0.000, 19:25:52.584
6, -20820.63, -24758.11, -26281.38, -37448.16, -6425.12, 496.32, 1831.26, -17625.82, 0.044, 0.016, 0.976, 19:25:52.584
7, -19334.97, -21927.33, -26775.47, -36813.28, -5897.95, -5012.31, -6564.44, -27337.41, 0.000, 0.000, 0.000, 19:25:52.585
8, -21261.80, -25255.39, -31707.56, -40173.46, -6277.89, -2890.01, -4781.31, -25783.47, 0.000, 0.000, 0.000, 19:25:52.585
9, -23585.81, -29473.88, -36460.70, -43687.27, -6447.27, 3796.02, 3883.66, -16819.46, 0.000, 0.000, 0.000, 19:25:52.585
10, -23273.87, -29274.91, -36572.46, -43804.59, -6342.51, 6837.26, 8062.41, -11048.67, 0.000, 0.000, 0.000, 19:25:52.585
11, -19212.35, -22306.77, -31277.15, -39945.16, -6117.31, 306.89, -2148.38, -21593.62, 0.000, 0.000, 0.000, 19:25:52.585
12, -17448.60, -19152.65, -29286.53, -39225.59, -5404.92, -4255.35, -10006.25, -30731.90, 0.000, 0.000, 0.000, 19:25:53.050
13, -18710.00, -21598.56, -31458.69, -41409.00, -4082.28, -1906.00, -7303.30, -28341.92, 0.000, 0.000, 0.000, 19:25:53.050
14, -21029.84, -25612.68, -35188.95, -44583.48, -3178.69, 3475.63, 1678.35, -19148.00, 0.000, 0.000, 0.000, 19:25:53.050
15, -21660.65, -25798.47, -35188.57, -44970.34, -4620.53, 5447.41, 5623.50, -13804.68, 0.000, 0.000, 0.000, 19:25:53.050
16, -20268.16, -20201.97, -31294.83, -41878.00, -10936.42, 1701.01, -4901.27, -25134.40, 0.042, 0.028, 0.978, 19:25:53.050
17, -21223.38, -19010.16, -31827.21, -41696.42, -15862.74, -535.82, -11527.73, -34772.74, 0.000, 0.000, 0.000, 19:25:53.050
18, -26447.39, -23307.53, -36462.58, -43474.23, -18170.85, 925.45, -7418.30, -32763.77, 0.000, 0.000, 0.000, 19:25:53.051
19, -34766.04, -28560.88, -44996.79, -45015.81, -18745.71, 5079.79, 915.71, -24046.14, 0.000, 0.000, 0.000, 19:25:53.051
20, -38091.08, -30308.18, -52707.40, -43710.02, -17489.05, 7120.80, 4442.19, -19268.23, 0.000, 0.000, 0.000, 19:25:53.051
21, -35155.65, -27705.25, -55663.57, -39223.00, -15661.44, 3283.87, -3015.50, -30642.88, 0.000, 0.000, 0.000, 19:25:53.051
22, -31973.25, -25656.52, -53831.76, -36491.86, -15028.69, 2334.95, -5998.18, -38830.14, 0.000, 0.000, 0.000, 19:25:53.051
23, -26688.70, -25078.12, -48059.63, -34271.30, -21620.78, 4638.68, -353.02, -35152.25, 0.000, 0.000, 0.000, 19:25:53.051
24, -21069.98, -26091.03, -46350.63, -33242.30, -26387.93, 8977.78, 8061.31, -24885.36, 0.000, 0.000, 0.000, 19:25:53.051
25, -18089.69, -25812.96, -50702.32, -33266.46, -22546.25, 10841.80, 11023.72, -19756.71, 0.000, 0.000, 0.000, 19:25:53.051
26, -15984.33, -22608.50, -49489.46, -29106.42, -15866.63, 8122.56, 4430.32, -30705.48, 0.044, 0.030, 0.982, 19:25:53.052
27, -15437.81, -21075.21, -42995.46, -26488.31, -11418.10, 7006.91, 1897.62, -38427.92, 0.000, 0.000, 0.000, 19:25:53.052
28, -13655.60, -21151.88, -38702.11, -25231.88, -10099.03, 9020.22, 6532.88, -34351.55, 0.000, 0.000, 0.000, 19:25:53.052
29, -10657.11, -21799.66, -37330.36, -23419.89, -9662.44, 12164.02, 13753.05, -23784.31, 0.000, 0.000, 0.000, 19:25:53.052
30, -8173.61, -19642.44, -34831.32, -21717.20, -10238.04, 12698.63, 15934.07, -19209.24, 0.000, 0.000, 0.000, 19:25:53.052
31, -5428.99, -15021.24, -29505.67, -21410.13, -9832.73, 8461.21, 8806.70, -30588.25, 0.000, 0.000, 0.000, 19:25:53.052
32, -2605.77, -13473.00, -27246.13, -21471.62, -8020.79, 6420.76, 5606.06, -38178.21, 0.000, 0.000, 0.000, 19:25:53.052
33, -829.52, -14015.86, -27158.91, -20499.30, -5964.41, 8172.83, 9326.40, -34225.53, 0.000, 0.000, 0.000, 19:25:53.052
34, 333.89, -15082.20, -28280.81, -19983.84, -3725.61, 11720.11, 16471.56, -21797.42, 0.000, 0.000, 0.000, 19:25:53.052
35, 3698.68, -12554.04, -23826.91, -17780.57, -769.97, 12211.96, 17818.88, -15766.56, 0.000, 0.000, 0.000, 19:25:53.053
36, 6858.59, -8698.87, -19036.29, -15712.18, 2089.35, 9502.35, 15168.81, -22451.39, 0.038, 0.020, 0.978, 19:25:53.053
37, 6843.32, -8837.30, -19935.34, -15896.49, 3915.60, 9599.54, 16871.45, -21028.10, 0.000, 0.000, 0.000, 19:25:53.053
38, 6257.46, -11178.22, -22994.38, -16820.96, 3599.84, 9398.77, 18781.63, -13912.53, 0.000, 0.000, 0.000, 19:25:53.053
39, 6656.77, -11729.59, -22609.08, -17386.77, 1650.86, 7029.42, 16619.06, -14082.36, 0.000, 0.000, 0.000, 19:25:53.053
40, 7482.67, -11731.45, -22643.48, -17378.35, -2.84, 5283.86, 14256.43, -20478.09, 0.000, 0.000, 0.000, 19:25:53.053
41, 10561.42, -9435.27, -21058.83, -15224.64, 192.07, 3821.75, 11108.35, -29866.38, 0.000, 0.000, 0.000, 19:25:53.053
42, 13457.87, -6242.60, -20889.22, -14273.42, 1029.16, 3664.93, 9400.94, -36564.08, 0.000, 0.000, 0.000, 19:25:53.054
43, 15130.41, -5505.06, -21863.29, -14839.19, 1538.36, 4041.28, 11672.37, -32794.05, 0.000, 0.000, 0.000, 19:25:53.054
44, 16258.97, -4057.02, -22986.02, -16261.65, 1441.29, 4135.30, 14842.21, -22385.61, 0.000, 0.000, 0.000, 19:25:53.054
45, 14765.94, -1477.11, -20893.76, -15755.48, 1775.80, 3826.75, 14815.16, -17483.22, 0.000, 0.000, 0.000, 19:25:53.054
46, 15914.17, 3311.84, -15609.18, -12073.27, 3663.07, 5120.16, 13149.87, -28610.66, 0.050, 0.036, 0.990, 19:25:53.054
47, 19348.16, 5769.95, -15382.27, -12648.11, 3764.66, 7787.26, 12670.04, -36266.38, 0.000, 0.000, 0.000, 19:25:53.054
48, 24213.06, 5086.79, -19089.78, -17021.12, 1047.58, 8725.92, 13152.95, -32350.24, 0.000, 0.000, 0.000, 19:25:53.054
49, 34363.10, 3027.52, -21981.71, -21373.27, -2488.26, 8387.63, 13593.73, -21961.75, 0.000, 0.000, 0.000, 19:25:53.054
50, 38068.98, 4231.16, -20749.73, -19889.16, -1600.56, 8340.40, 13060.35, -16684.06, 0.000, 0.000, 0.000, 19:25:53.054
51, 27175.41, 9725.60, -12806.32, -13564.29, 4390.49, 8716.24, 12370.10, -25483.83, 0.000, 0.000, 0.000, 19:25:53.055
52, 23858.79, 10800.45, -9844.45, -13372.76, 3599.57, 5770.17, 11641.48, -25612.88, 0.000, 0.000, 0.000, 19:25:53.055
53, 36435.55, 8982.79, -11987.60, -17151.74, -2669.27, 1627.72, 11356.85, -11663.07, 0.000, 0.000, 0.000, 19:25:53.055
54, 41838.31, 10530.60, -10313.68, -16483.54, -4976.97, 762.51, 11654.49, -4299.22, 0.000, 0.000, 0.000, 19:25:53.055
55, 38801.69, 12189.50, -7142.08, -14041.90, -3439.24, 2959.68, 12732.45, -3256.69, 0.000, 0.000, 0.000, 19:25:53.055
56, 38847.53, 14029.88, -4533.27, -13153.04, -5258.07, 2277.78, 13365.52, -1628.68, 0.040, 0.020, 0.974, 19:25:53.055
57, 40509.34, 15718.66, -2154.82, -11461.93, -4643.37, 1756.40, 14574.97, 1148.54, 0.000, 0.000, 0.000, 19:25:53.056
58, 40450.91, 17506.67, -168.76, -9343.86, -3488.48, 1796.23, 16488.84, 3297.62, 0.000, 0.000, 0.000, 19:25:53.056
59, 40401.43, 17840.67, 1801.19, -8543.02, -2143.24, -708.04, 16973.09, 4263.89, 0.000, 0.000, 0.000, 19:25:53.056
60, 40062.89, 17493.23, 3385.04, -7827.80, -617.74, -6.53, 16680.79, 4175.73, 0.000, 0.000, 0.000, 19:25:53.056
61, 40564.57, 17999.50, 4097.75, -7378.36, 449.54, 2937.49, 16525.63, 3875.59, 0.000, 0.000, 0.000, 19:25:53.056
62, 40568.04, 18012.24, 5745.67, -6445.51, 565.90, 3880.44, 15726.08, 3534.12, 0.000, 0.000, 0.000, 19:25:53.056
63, 39864.78, 17303.40, 6265.64, -6168.39, -539.73, 863.07, 13779.49, 3672.41, 0.000, 0.000, 0.000, 19:25:53.056
64, 39187.97, 16600.62, 7223.30, -6561.44, -269.11, -3445.01, 11985.52, 3368.16, 0.000, 0.000, 0.000, 19:25:53.057
65, 38889.31, 16284.99, 8814.12, -5689.17, 1049.28, -4357.34, 11248.65, 2468.64, 0.000, 0.000, 0.000, 19:25:53.057
66, 38782.78, 16197.88, 9901.42, -3600.91, 2907.89, -7157.18, 10503.67, 1118.06, 0.044, 0.020, 0.978, 19:25:53.057
67, 38604.32, 16031.81, 10402.59, -834.77, 4519.08, -8903.12, 9074.61, 940.07, 0.000, 0.000, 0.000, 19:25:53.057
68, 38599.56, 16006.60, 11630.42, 2004.79, 5807.23, -9840.47, 7138.68, 1892.23, 0.000, 0.000, 0.000, 19:25:53.057
69, 38632.35, 15998.01, 12790.29, 4011.91, 6774.57, -9979.54, 5930.72, 2657.78, 0.000, 0.000, 0.000, 19:25:53.057
70, 38708.91, 16049.42, 13035.96, 5333.66, 7823.40, -8047.21, 6275.74, 3416.93, 0.000, 0.000, 0.000, 19:25:53.057
71, 38440.55, 15804.72, 12895.24, 5575.98, 7914.08, -8694.25, 7489.47, 1731.54, 0.000, 0.000, 0.000, 19:25:53.057
72, 38081.98, 15464.95, 12617.87, 5508.39, 6947.57, -7367.72, 7193.10, 833.79, 0.000, 0.000, 0.000, 19:25:53.058
73, 37762.71, 15131.21, 12151.28, 5848.85, 5627.14, -5662.70, 4882.20, 1681.43, 0.000, 0.000, 0.000, 19:25:53.058
74, 37542.39, 14874.44, 11754.29, 5705.93, 5625.98, -5100.42, 3260.52, 2825.37, 0.000, 0.000, 0.000, 19:25:53.058
75, 36997.86, 14320.11, 11061.03, 4520.95, 5214.68, -4768.95, 3131.10, 1306.75, 0.000, 0.000, 0.000, 19:25:53.058
76, 36940.91, 14285.36, 10914.42, 5520.28, 6761.78, -2953.40, 3600.62, -750.21, 0.032, 0.002, 0.958, 19:25:53.058
77, 36915.56, 14269.33, 10784.65, 7689.09, 9731.37, -1266.81, 2655.52, -2743.30, 0.000, 0.000, 0.000, 19:25:53.058
78, 36367.25, 13709.20, 10086.69, 9270.92, 11276.01, -1030.35, -497.19, -6930.56, 0.000, 0.000, 0.000, 19:25:53.059
79, 35885.23, 13196.67, 9426.92, 9876.70, 12033.96, -752.23, -2130.39, -10358.31, 0.000, 0.000, 0.000, 19:25:53.059
80, 35308.58, 12609.71, 8701.67, 10330.53, 10921.04, -635.80, -2958.14, -12626.30, 0.000, 0.000, 0.000, 19:25:53.059
81, 34674.44, 12006.64, 7981.09, 10666.57, 8367.91, -746.39, -2965.72, -14543.27, 0.000, 0.000, 0.000, 19:25:53.059
82, 34369.85, 11717.66, 7577.40, 11026.18, 7376.66, -555.04, -2061.12, -14744.31, 0.000, 0.000, 0.000, 19:25:53.059
83, 34641.70, 11963.39, 7702.72, 11754.31, 9440.84, -355.66, -496.48, -12804.24, 0.000, 0.000, 0.000, 19:25:53.059
84, 35160.37, 12429.78, 8042.67, 13273.78, 12519.57, 200.34, 898.58, -10071.47, 0.000, 0.000, 0.000, 19:25:53.059
85, 34985.57, 12234.85, 7721.61, 13753.01, 13353.22, 322.49, 1146.80, -9938.08, 0.000, 0.000, 0.000, 19:25:53.059
86, 34590.39, 11866.41, 7245.43, 13459.21, 13113.48, 1253.80, 1295.31, -11272.66, 0.030, 0.008, 0.974, 19:25:53.060
87, 34519.79, 11804.96, 7078.08, 13360.69, 13450.00, 2879.33, 2391.17, -10579.48, 0.000, 0.000, 0.000, 19:25:53.060
88, 34580.32, 11841.33, 6994.55, 13330.04, 13216.23, 4175.53, 2994.89, -8376.00, 0.000, 0.000, 0.000, 19:25:53.060
89, 34541.29, 11760.91, 6779.48, 13164.15, 13385.63, 4898.03, 2394.59, -6774.84, 0.000, 0.000, 0.000, 19:25:53.060
90, 34247.14, 11449.26, 6338.87, 12792.66, 13729.29, 5449.42, 2043.60, -6894.55, 0.000, 0.000, 0.000, 19:25:53.060
91, 34021.50, 11244.45, 6029.70, 12570.13, 14756.75, 6436.32, 2580.13, -7812.34, 0.000, 0.000, 0.000, 19:25:53.060
92, 33803.28, 11039.21, 5714.47, 12333.92, 14603.11, 7158.77, 3555.54, -7852.88, 0.000, 0.000, 0.000, 19:25:53.060
93, 33460.83, 10681.32, 5227.51, 11913.43, 13420.59, 6916.10, 3611.75, -7462.15, 0.000, 0.000, 0.000, 19:25:53.060
94, 33129.60, 10316.65, 4724.73, 11468.19, 14184.62, 6235.38, 2377.89, -7876.58, 0.000, 0.000, 0.000, 19:25:53.061
95, 32867.32, 10039.82, 4321.84, 11133.60, 16509.15, 5828.84, 2423.29, -9139.23, 0.000, 0.000, 0.000, 19:25:53.061
96, 32642.60, 9836.78, 4016.56, 10918.56, 19976.54, 5900.48, 3364.25, -11633.95, 0.000, 0.000, 0.000, 19:25:53.061
97, 32439.71, 9643.15, 3714.59, 10699.76, 22243.47, 6076.46, 4242.50, -12984.98, 0.036, 0.004, 0.966, 19:25:53.061
98, 32220.37, 9406.64, 3351.29, 10401.45, 21037.19, 5816.82, 5212.27, -12402.98, 0.000, 0.000, 0.000, 19:25:53.061
99, 31941.94, 9093.67, 2902.13, 10006.34, 19535.89, 5243.70, 5491.31, -11762.54, 0.000, 0.000, 0.000, 19:25:53.061
100, 31640.93, 8776.93, 2458.00, 9633.02, 20206.04, 5081.02, 4789.26, -11360.97, 0.000, 0.000, 0.000, 19:25:53.061
101, 31150.04, 8312.28, 1882.53, 9155.74, 19706.06, 4871.52, 4063.03, -11508.40, 0.000, 0.000, 0.000, 19:25:53.062
102, 30470.25, 7650.53, 1103.91, 8468.47, 16904.54, 4459.73, 3535.96, -11814.93, 0.000, 0.000, 0.000, 19:25:53.062
103, 29901.22, 7071.35, 394.13, 7827.98, 13221.15, 4259.71, 3055.13, -11697.09, 0.000, 0.000, 0.000, 19:25:53.062
104, 29857.26, 6989.57, 181.47, 7664.28, 12303.99, 4659.02, 3605.98, -9927.24, 0.000, 0.000, 0.000, 19:25:53.062
105, 30024.36, 7132.89, 208.74, 7752.37, 15074.78, 5694.62, 4677.28, -8693.35, 0.000, 0.000, 0.000, 19:25:53.062
106, 29902.23, 7031.08, 7.06, 7640.56, 17336.04, 6436.14, 5152.57, -9268.55, 0.000, 0.000, 0.000, 19:25:53.062
107, 29640.07, 6779.87, -352.69, 7364.30, 18175.52, 6662.72, 5119.80, -9094.88, 0.034, 0.006, 0.972, 19:25:53.062
108, 29467.35, 6588.91, -668.21, 7113.11, 18394.28, 6594.17, 4851.33, -8203.87, 0.000, 0.000, 0.000, 19:25:53.063
109, 29270.53, 6356.99, -1035.00, 6800.47, 18248.05, 6509.83, 4576.12, -7290.92, 0.000, 0.000, 0.000, 19:25:53.063
110, 28931.36, 6005.65, -1514.15, 6394.79, 17837.76, 6673.65, 4601.24, -7242.95, 0.000, 0.000, 0.000, 19:25:53.063
111, 28459.29, 5560.06, -2068.09, 5938.61, 16505.40, 7103.67, 4876.66, -7970.65, 0.000, 0.000, 0.000, 19:25:53.063
112, 27983.00, 5098.16, -2642.60, 5451.01, 14467.30, 7408.82, 5008.53, -7759.88, 0.000, 0.000, 0.000, 19:25:53.063
113, 27789.36, 4884.68, -2978.57, 5178.99, 13943.55, 7536.07, 5085.96, -6886.82, 0.000, 0.000, 0.000, 19:25:53.063
114, 27816.21, 4870.65, -3121.44, 5087.46, 15664.62, 7633.50, 5194.95, -6191.05, 0.000, 0.000, 0.000, 19:25:53.063
115, 27687.60, 4724.13, -3387.61, 4890.32, 17538.59, 7854.38, 5628.53, -6253.93, 0.000, 0.000, 0.000, 19:25:53.063
116, 27329.32, 4390.49, -3824.76, 4549.68, 18108.18, 7405.13, 6231.02, -7043.12, 0.000, 0.000, 0.000, 19:25:53.064
117, 26772.47, 3849.15, -4480.36, 3987.04, 17477.70, 5421.53, 6774.66, -7399.75, 0.022, 0.018, 0.974, 19:25:53.064
118, 26283.97, 3347.91, -5110.19, 3429.70, 16925.39, 5412.43, 4429.87, -7826.06, 0.000, 0.000, 0.000, 19:25:53.064
119, 25409.04, 2449.44, -6158.60, 2454.76, 15954.85, 7120.19, -2863.12, -9744.60, 0.000, 0.000, 0.000, 19:25:53.064
120, 24405.87, 1447.16, -7300.12, 1402.39, 14906.47, 6991.94, -6527.80, -13126.89, 0.000, 0.000, 0.000, 19:25:53.064
121, 24151.73, 1218.39, -7633.10, 1159.03, 14682.12, 6142.13, -3465.57, -13777.86, 0.000, 0.000, 0.000, 19:25:53.064
122, 24242.70, 1316.29, -7640.68, 1224.27, 14694.68, 5982.20, 986.63, -12866.13, 0.000, 0.000, 0.000, 19:25:53.064
123, 24259.09, 1309.68, -7767.01, 1157.15, 14617.57, 5862.08, 4052.71, -12843.78, 0.000, 0.000, 0.000, 19:25:53.064
124, 24265.34, 1275.35, -7931.43, 1046.98, 15049.38, 5262.27, 6604.00, -12391.40, 0.000, 0.000, 0.000, 19:25:53.065
125, 24239.44, 1231.11, -8094.44, 952.39, 15943.86, 4808.64, 7533.83, -9774.98, 0.000, 0.000, 0.000, 19:25:53.066
126, 24208.91, 1220.14, -8203.89, 922.77, 16061.54, 4862.31, 7279.27, -6368.35, 0.000, 0.000, 0.000, 19:25:53.066
127, 24464.63, 1477.14, -8045.44, 1147.14, 16195.38, 5317.93, 6204.58, -4336.69, 0.008, 0.018, 0.968, 19:25:53.066
128, 26712.77, 3660.23, -5937.90, 3263.94, 17670.62, 3435.31, 2255.40, -3298.33, 0.000, 0.000, 0.000, 19:25:53.066
129, 32070.95, 8875.56, -745.70, 8392.74, 22483.91, -982.23, -4358.68, 1499.22, 0.000, 0.000, 0.000, 19:25:53.066
130, 27417.48, 4281.07, -5544.44, 3777.91, 17746.73, 5782.55, 6935.54, -3446.97, 0.000, 0.000, 0.000, 19:25:53.066
131, 10485.27, -12334.47, -22589.05, -12787.25, 965.44, 20252.42, 25128.19, -22025.39, 0.000, 0.000, 0.000, 19:25:53.066
132, 6226.64, -16511.48, -26958.06, -16983.46, -3013.64, 15347.47, 27989.37, -27398.90, 0.000, 0.000, 0.000, 19:25:53.532
133, 13342.45, -9543.57, -19973.36, -10102.36, 4075.82, -15574.45, 34831.48, -20531.57, 0.000, 0.000, 0.000, 19:25:53.532
134, 24717.45, 1588.07, -8745.41, 917.94, 15363.23, -37949.53, 45921.30, -8403.14, 0.000, 0.000, 0.000, 19:25:53.532
135, 29312.17, 6079.09, -4273.79, 5357.36, 19936.77, -36933.44, 50328.95, -2320.63, 0.000, 0.000, 0.000, 19:25:53.532
136, 28740.41, 5524.86, -4939.58, 4788.21, 19380.62, -37327.64, 49601.16, -2573.42, 0.000, 0.000, 0.000, 19:25:53.533
137, 28448.45, 5230.51, -5349.98, 4455.80, 19055.31, -37532.58, 49120.93, -2899.16, 0.024, 0.028, 0.980, 19:25:53.533
138, 28348.38, 5101.38, -5598.04, 4276.81, 18890.31, -37600.13, 48807.47, -3117.38, 0.000, 0.000, 0.000, 19:25:53.533
139, 28267.71, 4979.54, -5837.02, 4104.65, 18738.41, -37669.48, 48508.16, -3340.96, 0.000, 0.000, 0.000, 19:25:53.533
140, 28164.07, 4854.44, -6071.94, 3947.68, 18601.75, -37733.45, 48215.97, -3565.01, 0.000, 0.000, 0.000, 19:25:53.533
141, 28080.50, 4776.59, -6257.75, 3845.57, 18515.60, -37748.21, 47972.30, -3731.02, 0.000, 0.000, 0.000, 19:25:53.533
142, 28025.53, 4714.63, -6433.12, 3747.90, 18435.79, -37757.97, 47743.68, -3882.41, 0.000, 0.000, 0.000, 19:25:53.533
143, 27964.51, 4625.92, -6636.37, 3615.57, 18326.46, -37803.59, 47491.51, -4066.05, 0.000, 0.000, 0.000, 19:25:53.533
144, 27888.14, 4510.56, -6867.62, 3454.60, 18188.08, -37880.64, 47213.41, -4282.44, 0.000, 0.000, 0.000, 19:25:53.534
145, 27794.30, 4394.29, -7095.09, 3304.88, 18055.29, -37954.80, 46934.77, -4501.28, 0.000, 0.000, 0.000, 19:25:53.534
146, 27721.88, 4322.49, -7275.02, 3206.54, 17969.37, -37982.77, 46700.14, -4667.47, 0.000, 0.000, 0.000, 19:25:53.534
147, 27668.49, 4261.27, -7446.89, 3111.88, 17891.41, -38001.56, 46479.73, -4817.18, 0.030, 0.016, 0.976, 19:25:53.534
148, 27606.48, 4173.58, -7647.74, 2985.01, 17785.93, -38050.07, 46237.04, -4999.46, 0.000, 0.000, 0.000, 19:25:53.534
149, 27527.58, 4060.15, -7874.79, 2829.02, 17652.24, -38131.85, 45968.24, -5212.61, 0.000, 0.000, 0.000, 19:25:53.534
150, 27433.66, 3947.39, -8098.71, 2677.05, 17517.46, -38214.91, 45694.41, -5429.15, 0.000, 0.000, 0.000, 19:25:53.534
151, 27361.53, 3874.03, -8280.67, 2572.48, 17426.36, -38251.23, 45459.65, -5597.12, 0.000, 0.000, 0.000, 19:25:53.535
152, 27307.62, 3810.37, -8453.27, 2476.33, 17348.15, -38274.37, 45240.60, -5749.58, 0.000, 0.000, 0.000, 19:25:53.535
153, 27246.40, 3725.54, -8647.93, 2351.90, 17248.55, -38325.21, 45004.23, -5929.52, 0.000, 0.000, 0.000, 19:25:53.535
154, 27171.07, 3618.14, -8867.99, 2201.80, 17123.45, -38403.56, 44744.08, -6138.17, 0.000, 0.000, 0.000, 19:25:53.535
155, 27081.91, 3509.38, -9091.21, 2052.72, 16991.26, -38485.90, 44473.51, -6353.62, 0.000, 0.000, 0.000, 19:25:53.535
156, 27012.26, 3436.94, -9276.58, 1946.50, 16896.89, -38529.40, 44236.43, -6527.18, 0.000, 0.000, 0.000, 19:25:53.535
157, 26957.95, 3372.61, -9453.20, 1848.69, 16816.92, -38559.57, 44017.64, -6684.09, 0.030, 0.014, 0.976, 19:25:53.535
158, 26896.70, 3289.60, -9647.77, 1728.19, 16716.65, -38610.04, 43785.64, -6860.85, 0.000, 0.000, 0.000, 19:25:53.535
159, 26821.94, 3185.30, -9860.85, 1584.98, 16595.19, -38683.00, 43535.07, -7059.75, 0.000, 0.000, 0.000, 19:25:53.536
160, 26736.51, 3078.64, -10082.02, 1437.15, 16463.87, -38768.90, 43266.14, -7274.02, 0.000, 0.000, 0.000, 19:25:53.536
161, 26670.64, 3003.34, -10272.01, 1323.80, 16363.91, -38822.43, 43023.06, -7453.57, 0.000, 0.000, 0.000, 19:25:53.536
162, 26770.88, 2841.29, -10180.86, 1487.55, 16552.20, -38590.87, 43075.63, -7337.27, 0.000, 0.000, 0.000, 19:25:53.536
163, 24321.96, -2098.58, -6556.15, 5724.97, 20910.53, -34283.02, 47303.06, -3041.33, 0.000, 0.000, 0.000, 19:25:53.536
164, 14449.71, -8492.70, -3660.37, 15012.19, 30514.69, -24845.88, 56775.06, 6513.70, 0.000, 0.000, 0.000, 19:25:53.536
165, 11807.15, -826.37, -2168.86, 15767.32, 28730.95, -27344.18, 54039.86, 3831.07, 0.000, 0.000, 0.000, 19:25:53.536
166, 13134.53, 6488.71, 2456.23, 15016.06, 18797.01, -41954.31, 38895.81, -11299.61, 0.000, 0.000, 0.000, 19:25:53.536
167, 12556.47, 4798.47, 2178.04, 14341.66, 15496.98, -47335.05, 32180.32, -17982.87, 0.028, 0.056, 0.982, 19:25:53.537
168, 11878.45, 1338.51, -208.09, 11386.42, 17417.28, -40582.05, 36321.09, -13779.09, 0.000, 0.000, 0.000, 19:25:53.537
169, 11689.92, -661.84, -3498.65, 9303.65, 21171.93, -29046.90, 45688.73, -4331.68, 0.000, 0.000, 0.000, 19:25:53.537
170, 11531.04, 1547.25, -4084.04, 8556.38, 21629.51, -25311.14, 44677.87, -5290.50, 0.000, 0.000, 0.000, 19:25:53.537
171, 10838.11, 6392.89, -2967.35, 8638.19, 19694.12, -30608.08, 31959.17, -18090.18, 0.000, 0.000, 0.000, 19:25:53.537
172, 11390.18, 8673.15, -3642.10, 10794.57, 21777.06, -28564.48, 28349.97, -22589.72, 0.000, 0.000, 0.000, 19:25:53.537
173, 13238.09, 10172.93, -4015.83, 13919.50, 25960.16, -20716.87, 32419.95, -18268.48, 0.000, 0.000, 0.000, 19:25:53.537
174, 15037.38, 12579.99, -3076.02, 16597.85, 29108.94, -14440.54, 34939.57, -15015.63, 0.000, 0.000, 0.000, 19:25:53.537
175, 16201.86, 15928.81, -1096.73, 18453.40, 29905.96, -13962.89, 29955.76, -20591.03, 0.000, 0.000, 0.000, 19:25:53.538
176, 18208.98, 17819.71, 424.62, 20707.95, 32984.34, -9802.38, 29823.17, -22183.81, 0.000, 0.000, 0.000, 19:25:53.538
177, 20001.39, 18953.68, 1248.77, 22447.45, 36038.75, -3575.97, 32686.81, -18855.57, 0.024, 0.026, 0.990, 19:25:53.538
178, 20911.11, 20251.78, 1810.56, 23263.45, 37521.89, -59.50, 32462.18, -18159.27, 0.000, 0.000, 0.000, 19:25:53.538
179, 21525.67, 21115.71, 1858.57, 23769.31, 38603.43, 3010.51, 32097.01, -18045.05, 0.000, 0.000, 0.000, 19:25:53.538
180, 22172.93, 21819.46, 1618.89, 24113.71, 39482.97, 5582.62, 31457.93, -19388.21, 0.000, 0.000, 0.000, 19:25:53.538
181, 22866.21, 22178.25, 1052.25, 24339.35, 40597.27, 8695.07, 31973.74, -19568.35, 0.000, 0.000, 0.000, 19:25:53.538
182, 23116.20, 22375.84, 168.20, 24073.37, 41157.52, 11056.38, 31903.45, -19174.85, 0.000, 0.000, 0.000, 19:25:53.538
183, 23141.07, 22433.28, -565.25, 23772.62, 41462.15, 12944.72, 31579.75, -18884.99, 0.000, 0.000, 0.000, 19:25:53.538
184, 22986.71, 22161.93, -1167.03, 23319.98, 41436.29, 14334.58, 30864.65, -19290.36, 0.000, 0.000, 0.000, 19:25:53.539
185, 22801.17, 21753.12, -1580.34, 22673.81, 41320.24, 15532.38, 30121.21, -20580.01, 0.000, 0.000, 0.000, 19:25:53.539
186, 22664.76, 21415.88, -1993.13, 21952.45, 41329.85, 17146.43, 30224.79, -20969.49, 0.000, 0.000, 0.000, 19:25:53.539
187, 22308.56, 21010.77, -2407.77, 20856.66, 40902.35, 18473.58, 30151.74, -20975.19, 0.000, 0.000, 0.000, 19:25:53.539
188, 21864.54, 20514.16, -2831.56, 19658.98, 40251.73, 19684.67, 30044.01, -20931.02, 0.028, 0.018, 0.978, 19:25:53.539
189, 21357.36, 20214.67, -3207.16, 18647.30, 39368.75, 20611.30, 29484.86, -21512.90, 0.000, 0.000, 0.000, 19:25:53.539
190, 20496.84, 19874.05, -3427.24, 17856.29, 38609.35, 21489.82, 28950.49, -22861.72, 0.000, 0.000, 0.000, 19:25:53.539
191, 19622.66, 19279.09, -3517.02, 17185.83, 38186.79, 22755.91, 29173.54, -23277.98, 0.000, 0.000, 0.000, 19:25:53.539
192, 19027.53, 18833.54, -3595.28, 16458.08, 37650.08, 23733.97, 29146.90, -23341.75, 0.000, 0.000, 0.000, 19:25:53.540
193, 18588.94, 18684.34, -3658.27, 15898.21, 37094.20, 24699.59, 29018.78, -23407.77, 0.000, 0.000, 0.000, 19:25:53.540
194, 18497.81, 18912.71, -3343.04, 15534.42, 36650.85, 25856.12, 28694.05, -23773.63, 0.000, 0.000, 0.000, 19:25:53.540
195, 18624.26, 19208.78, -2901.08, 15243.73, 36274.76, 27158.11, 28297.11, -24618.99, 0.000, 0.000, 0.000, 19:25:53.540
196, 18785.12, 19370.54, -2720.36, 15015.66, 36029.09, 28582.67, 28298.76, -24865.24, 0.000, 0.000, 0.000, 19:25:53.540
197, 19049.99, 19593.29, -4588.05, 15053.74, 35908.23, 29681.57, 27923.36, -24929.19, 0.000, 0.000, 0.000, 19:25:53.540
198, 19359.94, 19846.52, -10092.01, 15335.29, 35862.01, 30435.50, 27288.82, -25192.16, 0.036, 0.012, 0.972, 19:25:53.540
199, 19566.85, 20062.86, -14488.76, 15607.13, 35882.46, 30907.37, 26437.33, -25851.94, 0.000, 0.000, 0.000, 19:25:53.540
200, 19887.11, 20313.58, -17538.56, 16226.61, 36155.00, 31429.66, 25672.90, -27069.28, 0.000, 0.000, 0.000, 19:25:53.541
201, 20071.96, 20246.50, -20217.35, 17251.28, 36473.73, 32155.78, 25645.68, -27398.41, 0.000, 0.000, 0.000, 19:25:53.541
202, 19977.97, 20042.34, -21817.36, 18304.58, 36431.75, 32345.72, 25235.86, -27382.00, 0.000, 0.000, 0.000, 19:25:53.541
203, 19803.78, 19772.26, -22926.45, 19309.83, 36234.14, 32476.61, 24776.48, -27388.22, 0.000, 0.000, 0.000, 19:25:53.541
204, 19508.29, 19281.20, -23972.33, 19917.73, 35468.89, 32589.27, 23990.24, -27990.40, 0.000, 0.000, 0.000, 19:25:53.541
205, 18979.65, 18657.65, -24399.10, 20163.49, 34596.36, 32840.90, 23213.20, -29229.58, 0.000, 0.000, 0.000, 19:25:53.541
206, 17261.49, 17866.58, -24573.08, 19216.31, 34473.27, 33323.43, 22931.84, -29783.74, 0.000, 0.000, 0.000, 19:25:53.541
207, 13837.43, 16922.93, -24648.23, 17812.15, 34627.34, 33553.54, 22215.42, -30122.19, 0.000, 0.000, 0.000, 19:25:53.542
208, 10340.56, 15864.98, -24094.93, 17271.66, 34723.03, 33835.80, 21533.07, -30372.42, 0.038, 0.014, 0.970, 19:25:53.542
209, 7382.65, 14666.52, -22860.89, 16687.72, 34489.10, 33541.09, 20556.70, -31165.33, 0.000, 0.000, 0.000, 19:25:53.542
210, 4625.45, 13366.43, -20850.24, 16221.15, 34630.18, 32915.36, 19711.85, -32546.22, 0.000, 0.000, 0.000, 19:25:53.542
211, 2925.02, 12080.80, -19002.94, 16109.53, 35272.04, 32575.50, 19845.80, -32842.13, 0.000, 0.000, 0.000, 19:25:53.542
212, 2019.57, 11042.21, -17618.92, 16349.32, 35215.73, 31718.33, 19820.43, -32789.27, 0.000, 0.000, 0.000, 19:25:53.542
213, 1089.83, 9959.07, -16261.00, 16892.89, 34827.44, 30843.26, 19983.04, -32672.19, 0.000, 0.000, 0.000, 19:25:53.542
214, -125.97, 8859.54, -15132.44, 17259.08, 34544.35, 29937.84, 19741.46, -33295.61, 0.000, 0.000, 0.000, 19:25:53.542
215, -1623.97, 7884.04, -14575.33, 17156.97, 34379.73, 29323.92, 19501.99, -34951.20, 0.000, 0.000, 0.000, 19:25:53.543
216, -3114.63, 7004.84, -15408.78, 16778.74, 34310.57, 29300.52, 20105.24, -35518.71, 0.000, 0.000, 0.000, 19:25:53.543
217, -4102.57, 6284.89, -15583.19, 16266.44, 34015.82, 29019.18, 20408.80, -35392.13, 0.000, 0.000, 0.000, 19:25:53.543
218, -4234.96, 6211.93, -15718.73, 15932.57, 34009.25, 28840.99, 20718.19, -35076.14, 0.046, 0.012, 0.974, 19:25:53.543
219, -3717.85, 6630.76, -16199.31, 15564.93, 34209.05, 28491.70, 20654.93, -35532.21, 0.000, 0.000, 0.000, 19:25:53.543
220, -2996.18, 6870.23, -17076.55, 15288.57, 34520.79, 28282.64, 20641.79, -37016.86, 0.000, 0.000, 0.000, 19:25:53.543
221, -2228.18, 6894.33, -18104.40, 15117.74, 34971.89, 28721.97, 21588.77, -37241.00, 0.000, 0.000, 0.000, 19:25:53.543
222, -1449.49, 6980.63, -18543.74, 14964.07, 35215.42, 28833.21, 22161.75, -36952.04, 0.000, 0.000, 0.000, 19:25:53.544
223, -523.16, 7242.23, -18571.75, 15046.28, 35566.96, 29001.57, 22782.89, -36520.87, 0.000, 0.000, 0.000, 19:25:53.544
224, 448.80, 7707.60, -18222.26, 15207.43, 35965.25, 28973.58, 23176.77, -36752.50, 0.000, 0.000, 0.000, 19:25:53.544
225, 1417.57, 8238.88, -17960.25, 15387.95, 36472.10, 29083.40, 23675.32, -37861.86, 0.000, 0.000, 0.000, 19:25:53.544
226, 2429.99, 8651.06, -17345.31, 15358.26, 37163.20, 29808.82, 24874.32, -37912.38, 0.000, 0.000, 0.000, 19:25:53.544
227, 3323.70, 8992.73, -16093.21, 14292.04, 37664.54, 30236.39, 25687.90, -37562.75, 0.000, 0.000, 0.000, 19:25:53.544
228, 4101.81, 9230.44, -14083.12, 13026.01, 38148.93, 30597.59, 26432.46, -37165.12, 0.040, 0.014, 0.972, 19:25:53.544
229, 4842.24, 9494.64, -12119.43, 12140.26, 38581.55, 30714.47, 26723.54, -37391.92, 0.000, 0.000, 0.000, 19:25:53.545
230, 5716.37, 9910.14, -10336.61, 11577.24, 39198.81, 30950.35, 27002.49, -38266.45, 0.000, 0.000, 0.000, 19:25:53.545
231, 6609.66, 10429.26, -9093.23, 11426.97, 40183.18, 31631.79, 27851.35, -38258.00, 0.000, 0.000, 0.000, 19:25:53.545
232, 7522.70, 11053.99, -8071.37, 11297.17, 41077.57, 31902.82, 28290.40, -37952.19, 0.000, 0.000, 0.000, 19:25:53.545
233, 8388.56, 11637.61, -7915.60, 11101.04, 41861.48, 32106.85, 28484.44, -37714.16, 0.000, 0.000, 0.000, 19:25:53.545
234, 9064.62, 12093.43, -8424.28, 10848.55, 42421.13, 32178.42, 28224.57, -38127.65, 0.000, 0.000, 0.000, 19:25:53.545
235, 9740.46, 12442.90, -8998.95, 10605.79, 43030.44, 32239.62, 27949.07, -39113.34, 0.000, 0.000, 0.000, 19:25:53.545
236, 10565.76, 12767.74, -9441.24, 10452.03, 43812.23, 32680.75, 28244.85, -39213.65, 0.000, 0.000, 0.000, 19:25:53.545
237, 11300.68, 13078.90, -9620.39, 10136.96, 44293.11, 32735.51, 28171.27, -39145.05, 0.000, 0.000, 0.000, 19:25:53.546
238, 11837.15, 13388.45, -9718.76, 9618.38, 44702.17, 32898.08, 28105.55, -39089.27, 0.032, 0.008, 0.970, 19:25:53.546
239, 12342.59, 14179.52, -9353.31, 9463.68, 45259.00, 33341.61, 27896.65, -39446.11, 0.000, 0.000, 0.000, 19:25:53.546
240, 12919.06, 15245.10, -8655.31, 9465.85, 46020.25, 33948.43, 28021.15, -40029.45, 0.000, 0.000, 0.000, 19:25:53.546
241, 13993.09, 16414.25, -7880.87, 9606.58, 47041.10, 34889.48, 28837.50, -39867.73, 0.000, 0.000, 0.000, 19:25:53.546
242, 15037.96, 17668.14, -6749.49, 9916.19, 47938.21, 35779.96, 29671.02, -39542.61, 0.000, 0.000, 0.000, 19:25:53.546
243, 16273.88, 19160.52, -5375.06, 10481.83, 48883.13, 36744.14, 30746.59, -39174.18, 0.000, 0.000, 0.000, 19:25:53.547
244, 17403.47, 20765.02, -4085.97, 11166.84, 49733.79, 37354.88, 31863.71, -39175.43, 0.000, 0.000, 0.000, 19:25:53.547
245, 18353.58, 22170.22, -3739.80, 11674.79, 50272.43, 37721.29, 33060.93, -39468.13, 0.000, 0.000, 0.000, 19:25:53.547
246, 19019.63, 22870.06, -4523.57, 11617.41, 50043.88, 37755.63, 34198.91, -39663.82, 0.000, 0.000, 0.000, 19:25:53.547
247, 19528.36, 23039.26, -5113.32, 11319.46, 49027.61, 37304.25, 35107.64, -39921.51, 0.000, 0.000, 0.000, 19:25:53.547
248, 19838.65, 23063.18, -5711.76, 10722.15, 47922.25, 36692.49, 35870.14, -40207.37, 0.050, 0.026, 0.994, 19:25:53.547
249, 19937.91, 23010.67, -6198.36, 9905.58, 46830.34, 36118.25, 36404.26, -40753.33, 0.000, 0.000, 0.000, 19:25:53.547
250, 19999.63, 22966.73, -6585.76, 9750.68, 45904.69, 35687.98, 36966.68, -41426.41, 0.000, 0.000, 0.000, 19:25:53.547
251, 20130.40, 23049.95, -7691.84, 9951.09, 45225.11, 35336.39, 37633.68, -41793.36, 0.000, 0.000, 0.000, 19:25:53.548
252, 20101.66, 23073.10, -8558.26, 10159.07, 44718.22, 34948.67, 38223.36, -42079.93, 0.000, 0.000, 0.000, 19:25:53.548
253, 19898.33, 22903.43, -8840.09, 10651.25, 44167.87, 34675.45, 38821.36, -42294.46, 0.000, 0.000, 0.000, 19:25:54.014
254, 19645.46, 22674.26, -8941.41, 10971.93, 43589.77, 34426.47, 39201.14, -42731.26, 0.000, 0.000, 0.000, 19:25:54.014
255, 19539.98, 22505.77, -9825.56, 11253.83, 43159.25, 34258.79, 39506.21, -43389.47, 0.000, 0.000, 0.000, 19:25:54.014
0, 19505.90, 22454.29, -10908.97, 11666.11, 42882.51, 34220.54, 39910.00, -43741.07, 0.000, 0.000, 0.000, 19:25:54.014
1, 19462.49, 22430.58, -11198.58, 11979.55, 42711.03, 34147.50, 40257.77, -43930.54, 0.000, 0.000, 0.000, 19:25:54.014
2, 19308.35, 22295.06, -11460.10, 12086.66, 42567.27, 34029.30, 40520.31, -44132.78, 0.046, 0.020, 0.986, 19:25:54.015
3, 19051.82, 22082.38, -11817.79, 12102.64, 42325.48, 33780.28, 40566.58, -44639.65, 0.000, 0.000, 0.000, 19:25:54.015
4, 18768.87, 21877.57, -12019.45, 12156.40, 42088.22, 33598.02, 40626.33, -45316.57, 0.000, 0.000, 0.000, 19:25:54.015
5, 18465.58, 21811.41, -12179.76, 12213.06, 41925.48, 33497.80, 40804.45, -45628.31, 0.000, 0.000, 0.000, 19:25:54.015
6, 18124.18, 21884.12, -12375.36, 12214.47, 41779.90, 33277.84, 40821.32, -45886.41, 0.000, 0.000, 0.000, 19:25:54.015
7, 17731.84, 21961.13, -12597.78, 12193.28, 41586.94, 33073.52, 40835.79, -46107.13, 0.000, 0.000, 0.000, 19:25:54.015
8, 17173.27, 22071.01, -12796.46, 12193.28, 41353.05, 32819.82, 40742.87, -46568.27, 0.000, 0.000, 0.000, 19:25:54.015
9, 15821.88, 21757.66, -13069.58, 12332.82, 41268.49, 32620.09, 40605.43, -47334.11, 0.000, 0.000, 0.000, 19:25:54.016
10, 13730.47, 21329.64, -13417.06, 12563.13, 41281.14, 32560.75, 40577.11, -47813.38, 0.000, 0.000, 0.000, 19:25:54.016
11, 11461.68, 21148.64, -13747.75, 12568.90, 41233.13, 32405.69, 40407.68, -48220.80, 0.000, 0.000, 0.000, 19:25:54.016
12, 9302.30, 20654.40, -14460.93, 12271.73, 41062.34, 32118.61, 40127.48, -48670.25, 0.000, 0.000, 0.000, 19:25:54.016
13, 7074.19, 19762.92, -15629.37, 11642.53, 40608.34, 31525.53, 39553.27, -49507.44, 0.044, 0.018, 0.986, 19:25:54.016
14, 5410.66, 18974.51, -16629.96, 11108.71, 40273.46, 31017.52, 39046.84, -50503.14, 0.000, 0.000, 0.000, 19:25:54.016
15, 4190.19, 18236.74, -17522.52, 10658.61, 40105.27, 30715.30, 38768.94, -51048.50, 0.000, 0.000, 0.000, 19:25:54.016
16, 2602.84, 17359.13, -18569.96, 10095.03, 39838.74, 30268.49, 38323.32, -51560.87, 0.000, 0.000, 0.000, 19:25:54.017
17, 720.53, 16250.63, -19898.08, 9371.93, 39463.39, 29672.70, 37787.97, -52125.34, 0.000, 0.000, 0.000, 19:25:54.017
18, -2213.96, 15208.42, -21118.51, 8782.38, 39156.25, 29020.68, 37124.46, -53049.70, 0.000, 0.000, 0.000, 19:25:54.017
19, -9318.62, 14375.28, -21775.31, 8427.43, 39007.14, 28490.31, 36351.73, -54397.08, 0.000, 0.000, 0.000, 19:25:54.017
20, -15966.74, 13235.88, -22257.55, 8240.24, 39100.62, 28217.31, 35695.73, -55266.83, 0.000, 0.000, 0.000, 19:25:54.017
21, -18159.07, 9459.28, -23275.12, 7801.23, 38357.65, 27687.13, 34842.75, -56024.22, 0.000, 0.000, 0.000, 19:25:54.017
22, -15528.85, 2442.96, -25645.00, 6589.34, 36403.68, 26441.87, 33794.88, -56890.20, 0.000, 0.000, 0.000, 19:25:54.017
23, -10522.02, -3574.74, -28430.30, 2638.06, 31928.79, 23934.40, 32160.74, -58505.06, 0.040, -0.052, 0.910, 19:25:54.017
24, -7815.80, -8021.73, -33177.74, -2368.14, 27514.59, 20903.89, 30357.18, -60881.23, 0.000, 0.000, 0.000, 19:25:54.018
25, -7186.96, -11388.93, -36250.24, -4076.44, 25177.25, 18229.50, 29585.19, -61767.30, 0.000, 0.000, 0.000, 19:25:54.018
26, -6770.14, -12557.03, -33145.29, -5028.54, 24087.22, 16290.64, 29097.72, -61679.32, 0.000, 0.000, 0.000, 19:25:54.018
27, -6468.80, -14760.06, -32953.49, -7397.76, 23859.30, 15463.41, 28374.29, -61860.86, 0.000, 0.000, 0.000, 19:25:54.018
28, -8761.95, -16935.83, -36654.69, -11707.84, 21007.38, 12436.89, 25869.95, -64381.07, 0.000, 0.000, 0.000, 19:25:54.018
29, -9022.71, -17148.88, -37248.55, -12233.71, 17768.09, 9135.31, 28825.28, -65717.44, 0.000, 0.000, 0.000, 19:25:54.018
30, -8432.44, -16554.46, -36762.63, -11684.04, 18356.46, 8874.40, 31897.19, -65331.82, 0.000, 0.000, 0.000, 19:25:54.018
31, -8693.13, -16807.35, -37142.72, -11980.24, 22117.01, 8665.35, 31291.50, -64925.64, 0.000, 0.000, 0.000, 19:25:54.018
32, -8971.19, -17091.60, -37553.32, -12314.36, 19574.56, 9340.70, 28042.54, -64983.83, 0.000, 0.000, 0.000, 19:25:54.019
33, -9156.95, -17293.59, -37877.69, -12562.06, 16986.61, 13297.52, 35953.23, -64724.37, 0.038, -0.124, 0.842, 19:25:54.019
34, -9167.70, -17307.51, -38008.94, -12618.01, 16983.73, 14080.41, 41142.18, -65348.14, 0.000, 0.000, 0.000, 19:25:54.019
35, -9162.90, -17297.99, -38114.35, -12652.70, 16982.36, 14090.49, 41144.98, -65823.98, 0.000, 0.000, 0.000, 19:25:54.019
36, -9241.31, -17379.84, -38316.97, -12785.60, 16877.22, 14274.11, 41040.02, -65795.64, 0.000, 0.000, 0.000, 19:25:54.019
37, -9368.98, -17522.36, -38583.96, -12982.59, 16708.42, 17415.36, 42431.52, -65705.66, 0.000, 0.000, 0.000, 19:25:54.019
38, -9466.79, -17639.04, -38824.15, -13157.53, 16564.12, 21694.92, 43508.18, -65983.95, 0.000, 0.000, 0.000, 19:25:54.019
39, -9476.51, -17652.83, -38952.94, -13219.25, 16533.29, 28103.88, 45794.72, -66790.45, 0.000, 0.000, 0.000, 19:25:54.019
40, -9458.27, -17631.05, -39044.79, -13242.38, 16537.12, 25330.07, 43922.20, -67276.16, 0.000, 0.000, 0.000, 19:25:54.019
41, -9578.59, -17759.04, -39290.99, -13415.49, 16394.09, 27781.63, 43981.17, -67070.79, 0.000, 0.000, 0.000, 19:25:54.020
42, -9708.50, -17905.56, -39558.54, -13614.13, 16396.70, 29282.66, 43479.66, -66895.08, 0.000, 0.000, 0.000, 19:25:54.020
43, -9834.95, -18050.55, -39824.13, -13811.12, 18665.49, 33501.31, 45152.85, -67025.34, 0.042, -0.056, 0.906, 19:25:54.020
44, -9829.18, -18052.14, -39939.55, -13857.46, 23103.52, 34973.01, 44868.44, -67792.34, 0.000, 0.000, 0.000, 19:25:54.020
45, -9851.11, -18072.77, -40074.02, -13918.97, 25773.66, 32845.53, 41445.21, -68090.79, 0.000, 0.000, 0.000, 19:25:54.020
46, -10016.87, -18243.18, -40364.77, -13774.96, 29633.96, 31965.74, 39599.33, -67924.85, 0.000, 0.000, 0.000, 19:25:54.020
47, -10385.45, -18626.54, -40867.35, -10145.37, 30734.63, 28986.01, 36315.66, -67897.06, 0.000, 0.000, 0.000, 19:25:54.020
48, -11053.07, -19305.94, -41634.68, -3249.09, 32034.74, 26374.45, 33957.68, -68751.26, 0.000, 0.000, 0.000, 19:25:54.020
49, -11808.67, -20055.35, -40969.07, 758.57, 29970.85, 20511.05, 30013.14, -70418.45, 0.000, 0.000, 0.000, 19:25:54.021
50, -12608.26, -20838.73, -35327.07, 693.84, 25852.90, 12032.21, 23532.83, -71427.39, 0.000, 0.000, 0.000, 19:25:54.021
51, -13390.75, -20606.70, -27174.06, -190.01, 22361.94, 6885.52, 17795.74, -71906.09, 0.000, 0.000, 0.000, 19:25:54.021
52, -14041.01, -16408.79, -22385.81, -2475.88, 18693.08, 3220.71, 12856.59, -72313.86, 0.000, 0.000, 0.000, 19:25:54.021
53, -14795.67, -12753.68, -18956.22, -5298.48, 15352.23, 325.02, 9548.02, -72606.16, 0.040, -0.004, 0.940, 19:25:54.021
54, -14822.98, -11258.39, -16185.05, -9037.75, 10679.33, -2477.94, 7407.10, -72589.39, 0.000, 0.000, 0.000, 19:25:54.021
55, -10992.65, -11106.51, -15280.46, -12197.19, 7142.70, -5072.39, 5916.10, -71263.22, 0.000, 0.000, 0.000, 19:25:54.021
56, -6354.85, -10555.97, -15185.57, -14299.91, 4442.92, -6067.43, 5246.09, -69043.24, 0.000, 0.000, 0.000, 19:25:54.021
57, -2918.04, -9508.10, -14998.51, -15460.28, 22.31, -6133.43, 4828.33, -66683.61, 0.000, 0.000, 0.000, 19:25:54.022
58, -1556.60, -8449.50, -14662.14, -15890.06, -3788.53, -5719.07, 4241.31, -64343.68, 0.000, 0.000, 0.000, 19:25:54.022
59, -2261.53, -7895.42, -15837.10, -16489.89, -6239.47, -6236.90, 3379.67, -61669.20, 0.000, 0.000, 0.000, 19:25:54.022
60, -3386.60, -7967.86, -21999.30, -17522.13, -8064.08, -8574.53, 2446.40, -59053.73, 0.000, 0.000, 0.000, 19:25:54.022
61, -4467.51, -8572.65, -28394.78, -18841.94, -8883.97, -11794.95, 1563.30, -56791.38, 0.000, 0.000, 0.000, 19:25:54.022
62, -6106.00, -9753.88, -33723.89, -20564.48, -9253.64, -14804.95, 711.43, -54745.61, 0.000, 0.000, 0.000, 19:25:54.022
63, -7689.74, -10917.22, -36910.33, -23440.92, -9655.22, -16854.29, 124.19, -52938.16, 0.046, 0.008, 0.962, 19:25:54.022
64, -9254.52, -12665.64, -39066.98, -26714.60, -11017.60, -18496.20, -431.52, -51530.34, 0.000, 0.000, 0.000, 19:25:54.022
65, -11137.38, -15078.55, -41242.52, -30263.12, -13439.77, -20255.31, -1256.53, -50241.58, 0.000, 0.000, 0.000, 19:25:54.023
66, -12928.14, -18126.46, -43098.68, -33429.54, -16377.93, -21822.88, -2164.07, -48992.88, 0.000, 0.000, 0.000, 19:25:54.023
67, -14513.48, -20974.54, -44611.55, -35816.95, -19464.21, -23203.88, -2964.87, -47701.32, 0.000, 0.000, 0.000, 19:25:54.023
68, -15480.86, -22513.06, -45704.31, -37489.15, -21909.00, -24185.95, -3492.17, -46495.36, 0.000, 0.000, 0.000, 19:25:54.023
69, -15992.43, -23255.45, -46604.04, -38783.63, -23567.97, -24868.68, -3739.54, -45400.10, 0.000, 0.000, 0.000, 19:25:54.023
70, -16330.92, -23803.45, -47254.29, -39724.37, -24935.58, -25438.16, -3811.17, -44008.80, 0.000, 0.000, 0.000, 19:25:54.023
71, -16512.62, -24310.56, -47702.02, -40184.43, -26114.79, -25843.73, -3824.74, -42567.27, 0.000, 0.000, 0.000, 19:25:54.023
72, -16654.42, -24707.75, -48090.87, -40393.87, -27417.97, -26211.22, -3825.30, -41235.32, 0.000, 0.000, 0.000, 19:25:54.023
73, -16603.32, -24881.38, -48197.94, -40363.00, -28794.90, -26481.38, -3773.56, -40304.89, 0.040, 0.012, 0.970, 19:25:54.024
74, -16568.70, -25116.70, -48162.24, -40194.20, -29639.17, -26758.08, -3697.92, -39737.91, 0.000, 0.000, 0.000, 19:25:54.024
75, -16521.56, -25568.88, -48125.92, -39901.84, -30158.58, -27037.92, -3590.72, -39000.11, 0.000, 0.000, 0.000, 19:25:54.024
76, -16055.97, -26041.21, -48075.16, -39341.06, -30618.36, -27085.71, -3380.52, -38143.36, 0.000, 0.000, 0.000, 19:25:54.024
77, -15316.44, -26650.65, -47871.04, -38751.04, -31024.47, -27012.91, -3135.39, -37320.24, 0.000, 0.000, 0.000, 19:25:54.024
78, -13906.99, -26311.62, -46923.66, -37624.15, -30767.94, -26410.57, -2542.40, -36704.87, 0.000, 0.000, 0.000, 19:25:54.024
79, -12041.98, -25533.07, -45214.00, -36036.98, -30136.45, -25362.61, -1532.35, -36320.93, 0.000, 0.000, 0.000, 19:25:54.024
80, -10140.14, -25041.51, -43312.65, -34316.54, -29699.68, -24026.29, -310.49, -35804.59, 0.000, 0.000, 0.000, 19:25:54.024
81, -8557.41, -24508.71, -41543.64, -32643.83, -29065.27, -22514.78, 897.27, -35355.54, 0.000, 0.000, 0.000, 19:25:54.025
82, -7758.22, -23931.10, -40010.83, -31042.68, -28068.07, -20971.46, 2012.51, -34969.04, 0.000, 0.000, 0.000, 19:25:54.025
83, -6659.12, -23225.52, -39314.50, -29299.00, -27453.35, -19070.82, 3176.09, -35000.86, 0.042, 0.006, 0.970, 19:25:54.025
84, -5068.91, -22260.62, -40816.39, -27623.11, -27081.17, -16883.57, 4442.70, -35230.93, 0.000, 0.000, 0.000, 19:25:54.025
85, -3592.51, -21174.03, -42346.88, -25947.51, -26538.07, -15053.70, 5293.90, -35085.51, 0.000, 0.000, 0.000, 19:25:54.025
86, -3671.65, -19739.72, -42272.67, -24523.26, -25981.20, -13941.25, 5429.55, -34940.04, 0.000, 0.000, 0.000, 19:25:54.025
87, -6277.58, -17872.10, -40491.08, -23597.34, -24466.13, -12925.45, 6197.54, -34762.97, 0.000, 0.000, 0.000, 19:25:54.025
88, -7632.43, -16257.41, -37951.27, -23162.71, -21951.31, -11696.94, 7373.59, -34866.80, 0.000, 0.000, 0.000, 19:25:54.026
89, -8634.68, -15526.35, -35449.29, -23200.13, -18897.95, -10864.51, 8053.06, -35164.97, 0.000, 0.000, 0.000, 19:25:54.026
90, -9563.24, -15293.15, -33377.55, -24033.76, -16092.25, -10449.15, 8533.02, -35023.06, 0.000, 0.000, 0.000, 19:25:54.026
91, -9111.71, -14990.40, -31523.16, -25693.22, -14412.83, -10158.31, 9265.33, -34837.29, 0.000, 0.000, 0.000, 19:25:54.026
92, -8600.88, -14702.28, -29956.88, -27240.20, -14216.94, -10489.03, 9830.88, -34663.35, 0.000, 0.000, 0.000, 19:25:54.026
93, -9053.15, -14656.19, -29227.23, -28405.09, -13989.20, -10410.88, 9506.60, -35610.33, 0.040, 0.010, 0.970, 19:25:54.026
94, -12707.46, -14916.37, -30144.77, -29798.36, -15991.67, -10482.41, 9199.60, -37288.97, 0.000, 0.000, 0.000, 19:25:54.026
95, -15999.20, -15302.41, -30569.68, -30660.22, -19077.04, -10224.36, 9084.78, -37689.64, 0.000, 0.000, 0.000, 19:25:54.026
96, -15828.86, -16826.06, -29936.96, -31299.39, -19746.47, -9171.86, 9086.95, -37594.71, 0.000, 0.000, 0.000, 19:25:54.027
97, -16388.75, -18864.18, -30974.58, -32725.54, -19463.56, -8731.64, 9333.44, -37669.10, 0.000, 0.000, 0.000, 19:25:54.027
98, -16497.11, -19334.24, -34151.88, -34145.44, -19409.61, -8463.35, 8948.57, -39081.27, 0.000, 0.000, 0.000, 19:25:54.027
99, -17009.95, -18141.19, -34714.52, -35999.38, -19223.10, -7499.77, 9361.58, -41091.42, 0.000, 0.000, 0.000, 19:25:54.027
100, -20407.21, -18356.62, -36257.41, -37899.62, -18863.06, -6894.78, 11607.62, -40591.71, 0.000, 0.000, 0.000, 19:25:54.027
101, -21802.14, -18741.24, -40270.18, -38487.76, -15166.51, -7111.90, 13172.75, -39829.62, 0.000, 0.000, 0.000, 19:25:54.027
102, -23042.46, -20548.29, -43149.53, -38862.11, -12493.22, -7327.55, 14411.02, -37937.52, 0.000, 0.000, 0.000, 19:25:54.027
103, -22465.42, -20313.11, -41790.36, -37406.58, -9754.03, -8253.87, 13813.20, -39015.89, 0.000, 0.000, 0.000, 19:25:54.027
104, -20872.82, -19223.26, -39905.13, -35149.61, -7074.10, -9172.80, 11382.76, -44662.72, 0.052, 0.016, 0.972, 19:25:54.028
105, -24202.54, -21256.93, -44487.03, -37175.38, -8224.79, -7794.54, 12411.74, -44752.26, 0.000, 0.000, 0.000, 19:25:54.028
106, -32894.79, -22267.50, -47775.73, -36704.71, -12604.86, -6735.07, 13270.28, -42861.41, 0.000, 0.000, 0.000, 19:25:54.028
107, -37243.04, -22423.76, -49092.05, -34508.63, -16217.87, -6184.95, 12518.56, -43235.52, 0.000, 0.000, 0.000, 19:25:54.028
108, -35912.12, -22296.04, -49333.41, -32499.53, -16689.20, -5529.89, 11964.35, -44212.46, 0.000, 0.000, 0.000, 19:25:54.028
109, -34556.49, -21651.82, -53353.77, -30896.93, -15688.87, -5104.36, 11771.12, -45969.87, 0.000, 0.000, 0.000, 19:25:54.028
110, -34924.76, -21899.84, -59621.49, -30308.23, -14486.86, -4968.84, 12448.98, -45586.63, 0.000, 0.000, 0.000, 19:25:54.028
111, -34592.03, -23481.51, -66148.31, -31626.20, -12117.66, -5381.32, 11506.21, -45972.51, 0.000, 0.000, 0.000, 19:25:54.028
112, -33393.82, -26832.71, -70185.77, -34881.80, -10237.52, -4963.25, 10644.84, -46291.27, 0.000, 0.000, 0.000, 19:25:54.028
113, -32570.42, -28087.89, -70020.46, -35917.44, -8267.93, -3921.48, 9753.92, -47231.22, 0.000, 0.000, 0.000, 19:25:54.029
114, -32143.28, -27826.04, -68662.10, -36046.52, -5991.97, -2185.69, 9802.38, -48057.95, 0.044, 0.014, 0.966, 19:25:54.029
115, -31306.05, -26897.35, -66902.05, -36031.75, -3715.40, -616.66, 10399.44, -47507.22, 0.000, 0.000, 0.000, 19:25:54.029
116, -30598.69, -25932.47, -64411.78, -35547.52, -1524.93, 314.11, 10518.46, -46829.38, 0.000, 0.000, 0.000, 19:25:54.029
117, -31138.95, -25174.93, -61906.06, -35000.08, 76.78, 1173.73, 10540.17, -46320.59, 0.000, 0.000, 0.000, 19:25:54.495
118, -32939.21, -24178.93, -59247.14, -34317.79, 117.82, 1635.14, 9907.16, -47004.15, 0.000, 0.000, 0.000, 19:25:54.495
119, -38274.93, -22823.86, -56608.34, -33652.34, 283.93, 2388.44, 9589.66, -48108.62, 0.000, 0.000, 0.000, 19:25:54.495
120, -40821.84, -21009.99, -53414.16, -32978.37, 517.38, 3755.85, 10029.92, -47829.71, 0.000, 0.000, 0.000, 19:25:54.496
121, -38590.46, -19036.64, -50059.48, -32283.83, 2135.02, 5130.08, 10516.47, -46903.32, 0.000, 0.000, 0.000, 19:25:54.496
